#  E (eV)   dos(E)     Int dos(E) EFermi =    0.491 eV
 -11.680  0.0000E+00  0.0000E+00
 -11.670  0.7658E+00  0.3697E-02
 -11.660  0.1156E+01  0.1283E-01
 -11.650  0.1415E+01  0.2596E-01
 -11.640  0.1713E+01  0.4161E-01
 -11.630  0.1990E+01  0.6026E-01
 -11.620  0.2210E+01  0.8120E-01
 -11.610  0.2450E+01  0.1045E+00
 -11.600  0.2713E+01  0.1303E+00
 -11.590  0.2935E+01  0.1585E+00
 -11.580  0.3176E+01  0.1891E+00
 -11.570  0.3439E+01  0.2221E+00
 -11.560  0.3714E+01  0.2579E+00
 -11.550  0.4007E+01  0.2965E+00
 -11.540  0.4311E+01  0.3381E+00
 -11.530  0.4646E+01  0.3827E+00
 -11.520  0.5117E+01  0.4316E+00
 -11.510  0.5604E+01  0.4852E+00
 -11.500  0.6505E+01  0.5444E+00
 -11.490  0.7529E+01  0.6164E+00
 -11.480  0.7426E+01  0.6908E+00
 -11.470  0.7188E+01  0.7638E+00
 -11.460  0.7137E+01  0.8354E+00
 -11.450  0.6938E+01  0.9059E+00
 -11.440  0.6798E+01  0.9745E+00
 -11.430  0.6709E+01  0.1042E+01
 -11.420  0.6529E+01  0.1108E+01
 -11.410  0.6372E+01  0.1173E+01
 -11.400  0.6248E+01  0.1236E+01
 -11.390  0.6107E+01  0.1298E+01
 -11.380  0.5936E+01  0.1358E+01
 -11.370  0.5774E+01  0.1416E+01
 -11.360  0.5611E+01  0.1473E+01
 -11.350  0.5446E+01  0.1529E+01
 -11.340  0.5291E+01  0.1582E+01
 -11.330  0.5080E+01  0.1634E+01
 -11.320  0.4844E+01  0.1684E+01
 -11.310  0.4716E+01  0.1732E+01
 -11.300  0.4509E+01  0.1778E+01
 -11.290  0.3897E+01  0.1820E+01
 -11.280  0.3173E+01  0.1855E+01
 -11.270  0.2710E+01  0.1885E+01
 -11.260  0.2351E+01  0.1910E+01
 -11.250  0.2000E+01  0.1932E+01
 -11.240  0.1739E+01  0.1950E+01
 -11.230  0.1426E+01  0.1966E+01
 -11.220  0.1183E+01  0.1979E+01
 -11.210  0.8672E+00  0.1990E+01
 -11.200  0.5470E+00  0.1997E+01
 -11.190  0.3339E+02  0.2055E+01
 -11.180  0.3261E+02  0.2750E+01
 -11.170  0.3052E+02  0.3069E+01
 -11.160  0.2487E+02  0.3352E+01
 -11.150  0.2221E+02  0.3583E+01
 -11.140  0.2130E+02  0.3799E+01
 -11.130  0.2002E+02  0.4010E+01
 -11.120  0.1950E+02  0.4207E+01
 -11.110  0.1924E+02  0.4400E+01
 -11.100  0.1889E+02  0.4594E+01
 -11.090  0.1890E+02  0.4783E+01
 -11.080  0.1938E+02  0.4973E+01
 -11.070  0.1911E+02  0.5168E+01
 -11.060  0.1952E+02  0.5361E+01
 -11.050  0.2036E+02  0.5564E+01
 -11.040  0.2245E+02  0.5770E+01
 -11.030  0.1433E+02  0.5987E+01
 -11.020  0.0000E+00  0.6000E+01
 -11.010  0.0000E+00  0.6000E+01
 -11.000  0.0000E+00  0.6000E+01
 -10.990  0.0000E+00  0.6000E+01
 -10.980  0.0000E+00  0.6000E+01
 -10.970  0.0000E+00  0.6000E+01
 -10.960  0.0000E+00  0.6000E+01
 -10.950  0.0000E+00  0.6000E+01
 -10.940  0.0000E+00  0.6000E+01
 -10.930  0.0000E+00  0.6000E+01
 -10.920  0.0000E+00  0.6000E+01
 -10.910  0.0000E+00  0.6000E+01
 -10.900  0.0000E+00  0.6000E+01
 -10.890  0.0000E+00  0.6000E+01
 -10.880  0.0000E+00  0.6000E+01
 -10.870  0.0000E+00  0.6000E+01
 -10.860  0.0000E+00  0.6000E+01
 -10.850  0.0000E+00  0.6000E+01
 -10.840  0.0000E+00  0.6000E+01
 -10.830  0.0000E+00  0.6000E+01
 -10.820  0.0000E+00  0.6000E+01
 -10.810  0.0000E+00  0.6000E+01
 -10.800  0.0000E+00  0.6000E+01
 -10.790  0.0000E+00  0.6000E+01
 -10.780  0.0000E+00  0.6000E+01
 -10.770  0.0000E+00  0.6000E+01
 -10.760  0.0000E+00  0.6000E+01
 -10.750  0.0000E+00  0.6000E+01
 -10.740  0.0000E+00  0.6000E+01
 -10.730  0.0000E+00  0.6000E+01
 -10.720  0.0000E+00  0.6000E+01
 -10.710  0.0000E+00  0.6000E+01
 -10.700  0.0000E+00  0.6000E+01
 -10.690  0.0000E+00  0.6000E+01
 -10.680  0.0000E+00  0.6000E+01
 -10.670  0.0000E+00  0.6000E+01
 -10.660  0.0000E+00  0.6000E+01
 -10.650  0.0000E+00  0.6000E+01
 -10.640  0.0000E+00  0.6000E+01
 -10.630  0.0000E+00  0.6000E+01
 -10.620  0.0000E+00  0.6000E+01
 -10.610  0.0000E+00  0.6000E+01
 -10.600  0.0000E+00  0.6000E+01
 -10.590  0.0000E+00  0.6000E+01
 -10.580  0.0000E+00  0.6000E+01
 -10.570  0.0000E+00  0.6000E+01
 -10.560  0.0000E+00  0.6000E+01
 -10.550  0.0000E+00  0.6000E+01
 -10.540  0.0000E+00  0.6000E+01
 -10.530  0.0000E+00  0.6000E+01
 -10.520  0.0000E+00  0.6000E+01
 -10.510  0.0000E+00  0.6000E+01
 -10.500  0.0000E+00  0.6000E+01
 -10.490  0.0000E+00  0.6000E+01
 -10.480  0.0000E+00  0.6000E+01
 -10.470  0.0000E+00  0.6000E+01
 -10.460  0.0000E+00  0.6000E+01
 -10.450  0.0000E+00  0.6000E+01
 -10.440  0.0000E+00  0.6000E+01
 -10.430  0.0000E+00  0.6000E+01
 -10.420  0.0000E+00  0.6000E+01
 -10.410  0.0000E+00  0.6000E+01
 -10.400  0.0000E+00  0.6000E+01
 -10.390  0.0000E+00  0.6000E+01
 -10.380  0.0000E+00  0.6000E+01
 -10.370  0.0000E+00  0.6000E+01
 -10.360  0.0000E+00  0.6000E+01
 -10.350  0.0000E+00  0.6000E+01
 -10.340  0.0000E+00  0.6000E+01
 -10.330  0.0000E+00  0.6000E+01
 -10.320  0.0000E+00  0.6000E+01
 -10.310  0.0000E+00  0.6000E+01
 -10.300  0.0000E+00  0.6000E+01
 -10.290  0.0000E+00  0.6000E+01
 -10.280  0.0000E+00  0.6000E+01
 -10.270  0.0000E+00  0.6000E+01
 -10.260  0.0000E+00  0.6000E+01
 -10.250  0.0000E+00  0.6000E+01
 -10.240  0.0000E+00  0.6000E+01
 -10.230  0.0000E+00  0.6000E+01
 -10.220  0.0000E+00  0.6000E+01
 -10.210  0.0000E+00  0.6000E+01
 -10.200  0.0000E+00  0.6000E+01
 -10.190  0.0000E+00  0.6000E+01
 -10.180  0.0000E+00  0.6000E+01
 -10.170  0.0000E+00  0.6000E+01
 -10.160  0.0000E+00  0.6000E+01
 -10.150  0.0000E+00  0.6000E+01
 -10.140  0.0000E+00  0.6000E+01
 -10.130  0.0000E+00  0.6000E+01
 -10.120  0.0000E+00  0.6000E+01
 -10.110  0.0000E+00  0.6000E+01
 -10.100  0.0000E+00  0.6000E+01
 -10.090  0.0000E+00  0.6000E+01
 -10.080  0.0000E+00  0.6000E+01
 -10.070  0.0000E+00  0.6000E+01
 -10.060  0.0000E+00  0.6000E+01
 -10.050  0.0000E+00  0.6000E+01
 -10.040  0.0000E+00  0.6000E+01
 -10.030  0.0000E+00  0.6000E+01
 -10.020  0.0000E+00  0.6000E+01
 -10.010  0.0000E+00  0.6000E+01
 -10.000  0.0000E+00  0.6000E+01
  -9.990  0.0000E+00  0.6000E+01
  -9.980  0.0000E+00  0.6000E+01
  -9.970  0.0000E+00  0.6000E+01
  -9.960  0.0000E+00  0.6000E+01
  -9.950  0.0000E+00  0.6000E+01
  -9.940  0.0000E+00  0.6000E+01
  -9.930  0.0000E+00  0.6000E+01
  -9.920  0.0000E+00  0.6000E+01
  -9.910  0.0000E+00  0.6000E+01
  -9.900  0.0000E+00  0.6000E+01
  -9.890  0.0000E+00  0.6000E+01
  -9.880  0.0000E+00  0.6000E+01
  -9.870  0.0000E+00  0.6000E+01
  -9.860  0.0000E+00  0.6000E+01
  -9.850  0.0000E+00  0.6000E+01
  -9.840  0.0000E+00  0.6000E+01
  -9.830  0.0000E+00  0.6000E+01
  -9.820  0.0000E+00  0.6000E+01
  -9.810  0.0000E+00  0.6000E+01
  -9.800  0.0000E+00  0.6000E+01
  -9.790  0.0000E+00  0.6000E+01
  -9.780  0.0000E+00  0.6000E+01
  -9.770  0.0000E+00  0.6000E+01
  -9.760  0.0000E+00  0.6000E+01
  -9.750  0.0000E+00  0.6000E+01
  -9.740  0.0000E+00  0.6000E+01
  -9.730  0.0000E+00  0.6000E+01
  -9.720  0.0000E+00  0.6000E+01
  -9.710  0.0000E+00  0.6000E+01
  -9.700  0.0000E+00  0.6000E+01
  -9.690  0.0000E+00  0.6000E+01
  -9.680  0.0000E+00  0.6000E+01
  -9.670  0.0000E+00  0.6000E+01
  -9.660  0.0000E+00  0.6000E+01
  -9.650  0.0000E+00  0.6000E+01
  -9.640  0.0000E+00  0.6000E+01
  -9.630  0.0000E+00  0.6000E+01
  -9.620  0.0000E+00  0.6000E+01
  -9.610  0.0000E+00  0.6000E+01
  -9.600  0.0000E+00  0.6000E+01
  -9.590  0.0000E+00  0.6000E+01
  -9.580  0.0000E+00  0.6000E+01
  -9.570  0.0000E+00  0.6000E+01
  -9.560  0.0000E+00  0.6000E+01
  -9.550  0.0000E+00  0.6000E+01
  -9.540  0.0000E+00  0.6000E+01
  -9.530  0.0000E+00  0.6000E+01
  -9.520  0.0000E+00  0.6000E+01
  -9.510  0.0000E+00  0.6000E+01
  -9.500  0.0000E+00  0.6000E+01
  -9.490  0.0000E+00  0.6000E+01
  -9.480  0.0000E+00  0.6000E+01
  -9.470  0.0000E+00  0.6000E+01
  -9.460  0.0000E+00  0.6000E+01
  -9.450  0.0000E+00  0.6000E+01
  -9.440  0.0000E+00  0.6000E+01
  -9.430  0.0000E+00  0.6000E+01
  -9.420  0.0000E+00  0.6000E+01
  -9.410  0.0000E+00  0.6000E+01
  -9.400  0.0000E+00  0.6000E+01
  -9.390  0.0000E+00  0.6000E+01
  -9.380  0.0000E+00  0.6000E+01
  -9.370  0.0000E+00  0.6000E+01
  -9.360  0.0000E+00  0.6000E+01
  -9.350  0.0000E+00  0.6000E+01
  -9.340  0.0000E+00  0.6000E+01
  -9.330  0.0000E+00  0.6000E+01
  -9.320  0.0000E+00  0.6000E+01
  -9.310  0.0000E+00  0.6000E+01
  -9.300  0.0000E+00  0.6000E+01
  -9.290  0.0000E+00  0.6000E+01
  -9.280  0.0000E+00  0.6000E+01
  -9.270  0.0000E+00  0.6000E+01
  -9.260  0.0000E+00  0.6000E+01
  -9.250  0.0000E+00  0.6000E+01
  -9.240  0.0000E+00  0.6000E+01
  -9.230  0.0000E+00  0.6000E+01
  -9.220  0.0000E+00  0.6000E+01
  -9.210  0.0000E+00  0.6000E+01
  -9.200  0.0000E+00  0.6000E+01
  -9.190  0.0000E+00  0.6000E+01
  -9.180  0.0000E+00  0.6000E+01
  -9.170  0.0000E+00  0.6000E+01
  -9.160  0.0000E+00  0.6000E+01
  -9.150  0.0000E+00  0.6000E+01
  -9.140  0.0000E+00  0.6000E+01
  -9.130  0.0000E+00  0.6000E+01
  -9.120  0.0000E+00  0.6000E+01
  -9.110  0.0000E+00  0.6000E+01
  -9.100  0.0000E+00  0.6000E+01
  -9.090  0.0000E+00  0.6000E+01
  -9.080  0.0000E+00  0.6000E+01
  -9.070  0.0000E+00  0.6000E+01
  -9.060  0.0000E+00  0.6000E+01
  -9.050  0.0000E+00  0.6000E+01
  -9.040  0.0000E+00  0.6000E+01
  -9.030  0.0000E+00  0.6000E+01
  -9.020  0.0000E+00  0.6000E+01
  -9.010  0.0000E+00  0.6000E+01
  -9.000  0.0000E+00  0.6000E+01
  -8.990  0.0000E+00  0.6000E+01
  -8.980  0.0000E+00  0.6000E+01
  -8.970  0.0000E+00  0.6000E+01
  -8.960  0.0000E+00  0.6000E+01
  -8.950  0.0000E+00  0.6000E+01
  -8.940  0.0000E+00  0.6000E+01
  -8.930  0.0000E+00  0.6000E+01
  -8.920  0.0000E+00  0.6000E+01
  -8.910  0.0000E+00  0.6000E+01
  -8.900  0.0000E+00  0.6000E+01
  -8.890  0.0000E+00  0.6000E+01
  -8.880  0.0000E+00  0.6000E+01
  -8.870  0.0000E+00  0.6000E+01
  -8.860  0.0000E+00  0.6000E+01
  -8.850  0.0000E+00  0.6000E+01
  -8.840  0.0000E+00  0.6000E+01
  -8.830  0.0000E+00  0.6000E+01
  -8.820  0.0000E+00  0.6000E+01
  -8.810  0.0000E+00  0.6000E+01
  -8.800  0.0000E+00  0.6000E+01
  -8.790  0.0000E+00  0.6000E+01
  -8.780  0.0000E+00  0.6000E+01
  -8.770  0.0000E+00  0.6000E+01
  -8.760  0.0000E+00  0.6000E+01
  -8.750  0.0000E+00  0.6000E+01
  -8.740  0.0000E+00  0.6000E+01
  -8.730  0.0000E+00  0.6000E+01
  -8.720  0.0000E+00  0.6000E+01
  -8.710  0.0000E+00  0.6000E+01
  -8.700  0.0000E+00  0.6000E+01
  -8.690  0.0000E+00  0.6000E+01
  -8.680  0.0000E+00  0.6000E+01
  -8.670  0.0000E+00  0.6000E+01
  -8.660  0.0000E+00  0.6000E+01
  -8.650  0.0000E+00  0.6000E+01
  -8.640  0.0000E+00  0.6000E+01
  -8.630  0.0000E+00  0.6000E+01
  -8.620  0.0000E+00  0.6000E+01
  -8.610  0.0000E+00  0.6000E+01
  -8.600  0.0000E+00  0.6000E+01
  -8.590  0.0000E+00  0.6000E+01
  -8.580  0.0000E+00  0.6000E+01
  -8.570  0.0000E+00  0.6000E+01
  -8.560  0.0000E+00  0.6000E+01
  -8.550  0.0000E+00  0.6000E+01
  -8.540  0.0000E+00  0.6000E+01
  -8.530  0.0000E+00  0.6000E+01
  -8.520  0.0000E+00  0.6000E+01
  -8.510  0.0000E+00  0.6000E+01
  -8.500  0.0000E+00  0.6000E+01
  -8.490  0.0000E+00  0.6000E+01
  -8.480  0.0000E+00  0.6000E+01
  -8.470  0.0000E+00  0.6000E+01
  -8.460  0.0000E+00  0.6000E+01
  -8.450  0.0000E+00  0.6000E+01
  -8.440  0.0000E+00  0.6000E+01
  -8.430  0.0000E+00  0.6000E+01
  -8.420  0.0000E+00  0.6000E+01
  -8.410  0.0000E+00  0.6000E+01
  -8.400  0.0000E+00  0.6000E+01
  -8.390  0.0000E+00  0.6000E+01
  -8.380  0.0000E+00  0.6000E+01
  -8.370  0.0000E+00  0.6000E+01
  -8.360  0.0000E+00  0.6000E+01
  -8.350  0.0000E+00  0.6000E+01
  -8.340  0.0000E+00  0.6000E+01
  -8.330  0.0000E+00  0.6000E+01
  -8.320  0.0000E+00  0.6000E+01
  -8.310  0.0000E+00  0.6000E+01
  -8.300  0.0000E+00  0.6000E+01
  -8.290  0.0000E+00  0.6000E+01
  -8.280  0.0000E+00  0.6000E+01
  -8.270  0.0000E+00  0.6000E+01
  -8.260  0.0000E+00  0.6000E+01
  -8.250  0.0000E+00  0.6000E+01
  -8.240  0.0000E+00  0.6000E+01
  -8.230  0.1382E-05  0.6000E+01
  -8.220  0.4482E-01  0.6000E+01
  -8.210  0.1671E+00  0.6001E+01
  -8.200  0.2396E+00  0.6003E+01
  -8.190  0.2564E+00  0.6006E+01
  -8.180  0.2983E+00  0.6009E+01
  -8.170  0.3542E+00  0.6012E+01
  -8.160  0.4072E+00  0.6016E+01
  -8.150  0.4327E+00  0.6020E+01
  -8.140  0.4528E+00  0.6024E+01
  -8.130  0.4855E+00  0.6029E+01
  -8.120  0.5202E+00  0.6034E+01
  -8.110  0.5546E+00  0.6039E+01
  -8.100  0.5893E+00  0.6045E+01
  -8.090  0.6266E+00  0.6051E+01
  -8.080  0.6577E+00  0.6058E+01
  -8.070  0.6839E+00  0.6064E+01
  -8.060  0.7142E+00  0.6071E+01
  -8.050  0.7456E+00  0.6079E+01
  -8.040  0.7769E+00  0.6086E+01
  -8.030  0.8082E+00  0.6094E+01
  -8.020  0.8422E+00  0.6102E+01
  -8.010  0.8781E+00  0.6111E+01
  -8.000  0.9141E+00  0.6120E+01
  -7.990  0.9491E+00  0.6129E+01
  -7.980  0.9842E+00  0.6139E+01
  -7.970  0.1020E+01  0.6149E+01
  -7.960  0.1057E+01  0.6159E+01
  -7.950  0.1095E+01  0.6170E+01
  -7.940  0.1134E+01  0.6181E+01
  -7.930  0.1173E+01  0.6193E+01
  -7.920  0.1213E+01  0.6205E+01
  -7.910  0.1256E+01  0.6217E+01
  -7.900  0.1306E+01  0.6230E+01
  -7.890  0.1358E+01  0.6243E+01
  -7.880  0.1409E+01  0.6257E+01
  -7.870  0.1461E+01  0.6271E+01
  -7.860  0.1516E+01  0.6286E+01
  -7.850  0.1571E+01  0.6302E+01
  -7.840  0.1627E+01  0.6318E+01
  -7.830  0.1688E+01  0.6334E+01
  -7.820  0.1776E+01  0.6351E+01
  -7.810  0.1872E+01  0.6370E+01
  -7.800  0.1962E+01  0.6389E+01
  -7.790  0.2055E+01  0.6409E+01
  -7.780  0.2154E+01  0.6430E+01
  -7.770  0.2354E+01  0.6452E+01
  -7.760  0.2684E+01  0.6478E+01
  -7.750  0.2819E+01  0.6505E+01
  -7.740  0.2743E+01  0.6533E+01
  -7.730  0.2747E+01  0.6560E+01
  -7.720  0.2783E+01  0.6588E+01
  -7.710  0.2778E+01  0.6616E+01
  -7.700  0.2732E+01  0.6644E+01
  -7.690  0.2711E+01  0.6671E+01
  -7.680  0.2715E+01  0.6698E+01
  -7.670  0.2717E+01  0.6725E+01
  -7.660  0.2717E+01  0.6752E+01
  -7.650  0.2715E+01  0.6779E+01
  -7.640  0.2699E+01  0.6806E+01
  -7.630  0.2677E+01  0.6833E+01
  -7.620  0.2668E+01  0.6860E+01
  -7.610  0.2663E+01  0.6887E+01
  -7.600  0.2657E+01  0.6913E+01
  -7.590  0.2652E+01  0.6940E+01
  -7.580  0.2649E+01  0.6966E+01
  -7.570  0.2645E+01  0.6993E+01
  -7.560  0.2636E+01  0.7019E+01
  -7.550  0.2625E+01  0.7046E+01
  -7.540  0.2615E+01  0.7072E+01
  -7.530  0.2607E+01  0.7098E+01
  -7.520  0.2600E+01  0.7124E+01
  -7.510  0.2593E+01  0.7150E+01
  -7.500  0.2586E+01  0.7176E+01
  -7.490  0.2578E+01  0.7202E+01
  -7.480  0.2572E+01  0.7227E+01
  -7.470  0.2572E+01  0.7253E+01
  -7.460  0.2571E+01  0.7279E+01
  -7.450  0.2563E+01  0.7304E+01
  -7.440  0.2553E+01  0.7330E+01
  -7.430  0.2541E+01  0.7355E+01
  -7.420  0.2528E+01  0.7381E+01
  -7.410  0.2512E+01  0.7406E+01
  -7.400  0.2512E+01  0.7431E+01
  -7.390  0.2536E+01  0.7456E+01
  -7.380  0.2541E+01  0.7482E+01
  -7.370  0.2515E+01  0.7507E+01
  -7.360  0.2480E+01  0.7532E+01
  -7.350  0.2460E+01  0.7557E+01
  -7.340  0.2512E+01  0.7581E+01
  -7.330  0.2519E+01  0.7607E+01
  -7.320  0.2289E+01  0.7631E+01
  -7.310  0.2023E+01  0.7652E+01
  -7.300  0.1890E+01  0.7672E+01
  -7.290  0.1782E+01  0.7690E+01
  -7.280  0.1667E+01  0.7708E+01
  -7.270  0.1566E+01  0.7724E+01
  -7.260  0.1493E+01  0.7739E+01
  -7.250  0.1430E+01  0.7754E+01
  -7.240  0.1369E+01  0.7768E+01
  -7.230  0.1308E+01  0.7781E+01
  -7.220  0.1247E+01  0.7794E+01
  -7.210  0.1186E+01  0.7806E+01
  -7.200  0.1134E+01  0.7817E+01
  -7.190  0.1090E+01  0.7829E+01
  -7.180  0.1047E+01  0.7839E+01
  -7.170  0.1005E+01  0.7850E+01
  -7.160  0.9642E+00  0.7859E+01
  -7.150  0.9240E+00  0.7869E+01
  -7.140  0.8837E+00  0.7878E+01
  -7.130  0.8440E+00  0.7887E+01
  -7.120  0.8071E+00  0.7895E+01
  -7.110  0.7730E+00  0.7903E+01
  -7.100  0.7404E+00  0.7910E+01
  -7.090  0.7084E+00  0.7917E+01
  -7.080  0.6769E+00  0.7924E+01
  -7.070  0.6457E+00  0.7931E+01
  -7.060  0.6156E+00  0.7937E+01
  -7.050  0.5872E+00  0.7943E+01
  -7.040  0.5587E+00  0.7949E+01
  -7.030  0.5286E+00  0.7955E+01
  -7.020  0.4986E+00  0.7960E+01
  -7.010  0.4689E+00  0.7964E+01
  -7.000  0.4396E+00  0.7969E+01
  -6.990  0.4105E+00  0.7973E+01
  -6.980  0.3857E+00  0.7977E+01
  -6.970  0.3674E+00  0.7981E+01
  -6.960  0.3430E+00  0.7985E+01
  -6.950  0.3053E+00  0.7988E+01
  -6.940  0.2646E+00  0.7991E+01
  -6.930  0.2289E+00  0.7993E+01
  -6.920  0.2075E+00  0.7995E+01
  -6.910  0.1890E+00  0.7997E+01
  -6.900  0.1299E+00  0.7999E+01
  -6.890  0.4554E-01  0.8000E+01
  -6.880  0.3398E-02  0.8000E+01
  -6.870  0.0000E+00  0.8000E+01
  -6.860  0.0000E+00  0.8000E+01
  -6.850  0.0000E+00  0.8000E+01
  -6.840  0.0000E+00  0.8000E+01
  -6.830  0.0000E+00  0.8000E+01
  -6.820  0.0000E+00  0.8000E+01
  -6.810  0.0000E+00  0.8000E+01
  -6.800  0.0000E+00  0.8000E+01
  -6.790  0.0000E+00  0.8000E+01
  -6.780  0.0000E+00  0.8000E+01
  -6.770  0.0000E+00  0.8000E+01
  -6.760  0.0000E+00  0.8000E+01
  -6.750  0.0000E+00  0.8000E+01
  -6.740  0.0000E+00  0.8000E+01
  -6.730  0.0000E+00  0.8000E+01
  -6.720  0.0000E+00  0.8000E+01
  -6.710  0.0000E+00  0.8000E+01
  -6.700  0.0000E+00  0.8000E+01
  -6.690  0.0000E+00  0.8000E+01
  -6.680  0.0000E+00  0.8000E+01
  -6.670  0.0000E+00  0.8000E+01
  -6.660  0.0000E+00  0.8000E+01
  -6.650  0.0000E+00  0.8000E+01
  -6.640  0.0000E+00  0.8000E+01
  -6.630  0.0000E+00  0.8000E+01
  -6.620  0.0000E+00  0.8000E+01
  -6.610  0.0000E+00  0.8000E+01
  -6.600  0.0000E+00  0.8000E+01
  -6.590  0.0000E+00  0.8000E+01
  -6.580  0.0000E+00  0.8000E+01
  -6.570  0.0000E+00  0.8000E+01
  -6.560  0.0000E+00  0.8000E+01
  -6.550  0.0000E+00  0.8000E+01
  -6.540  0.0000E+00  0.8000E+01
  -6.530  0.0000E+00  0.8000E+01
  -6.520  0.0000E+00  0.8000E+01
  -6.510  0.0000E+00  0.8000E+01
  -6.500  0.0000E+00  0.8000E+01
  -6.490  0.0000E+00  0.8000E+01
  -6.480  0.0000E+00  0.8000E+01
  -6.470  0.0000E+00  0.8000E+01
  -6.460  0.0000E+00  0.8000E+01
  -6.450  0.0000E+00  0.8000E+01
  -6.440  0.0000E+00  0.8000E+01
  -6.430  0.0000E+00  0.8000E+01
  -6.420  0.0000E+00  0.8000E+01
  -6.410  0.0000E+00  0.8000E+01
  -6.400  0.0000E+00  0.8000E+01
  -6.390  0.0000E+00  0.8000E+01
  -6.380  0.0000E+00  0.8000E+01
  -6.370  0.0000E+00  0.8000E+01
  -6.360  0.0000E+00  0.8000E+01
  -6.350  0.0000E+00  0.8000E+01
  -6.340  0.0000E+00  0.8000E+01
  -6.330  0.0000E+00  0.8000E+01
  -6.320  0.0000E+00  0.8000E+01
  -6.310  0.0000E+00  0.8000E+01
  -6.300  0.0000E+00  0.8000E+01
  -6.290  0.0000E+00  0.8000E+01
  -6.280  0.0000E+00  0.8000E+01
  -6.270  0.0000E+00  0.8000E+01
  -6.260  0.0000E+00  0.8000E+01
  -6.250  0.0000E+00  0.8000E+01
  -6.240  0.0000E+00  0.8000E+01
  -6.230  0.0000E+00  0.8000E+01
  -6.220  0.0000E+00  0.8000E+01
  -6.210  0.0000E+00  0.8000E+01
  -6.200  0.0000E+00  0.8000E+01
  -6.190  0.0000E+00  0.8000E+01
  -6.180  0.0000E+00  0.8000E+01
  -6.170  0.0000E+00  0.8000E+01
  -6.160  0.0000E+00  0.8000E+01
  -6.150  0.0000E+00  0.8000E+01
  -6.140  0.0000E+00  0.8000E+01
  -6.130  0.0000E+00  0.8000E+01
  -6.120  0.0000E+00  0.8000E+01
  -6.110  0.0000E+00  0.8000E+01
  -6.100  0.0000E+00  0.8000E+01
  -6.090  0.0000E+00  0.8000E+01
  -6.080  0.0000E+00  0.8000E+01
  -6.070  0.0000E+00  0.8000E+01
  -6.060  0.0000E+00  0.8000E+01
  -6.050  0.0000E+00  0.8000E+01
  -6.040  0.0000E+00  0.8000E+01
  -6.030  0.0000E+00  0.8000E+01
  -6.020  0.0000E+00  0.8000E+01
  -6.010  0.0000E+00  0.8000E+01
  -6.000  0.0000E+00  0.8000E+01
  -5.990  0.0000E+00  0.8000E+01
  -5.980  0.0000E+00  0.8000E+01
  -5.970  0.0000E+00  0.8000E+01
  -5.960  0.0000E+00  0.8000E+01
  -5.950  0.0000E+00  0.8000E+01
  -5.940  0.0000E+00  0.8000E+01
  -5.930  0.0000E+00  0.8000E+01
  -5.920  0.0000E+00  0.8000E+01
  -5.910  0.0000E+00  0.8000E+01
  -5.900  0.0000E+00  0.8000E+01
  -5.890  0.0000E+00  0.8000E+01
  -5.880  0.0000E+00  0.8000E+01
  -5.870  0.0000E+00  0.8000E+01
  -5.860  0.0000E+00  0.8000E+01
  -5.850  0.0000E+00  0.8000E+01
  -5.840  0.0000E+00  0.8000E+01
  -5.830  0.0000E+00  0.8000E+01
  -5.820  0.0000E+00  0.8000E+01
  -5.810  0.0000E+00  0.8000E+01
  -5.800  0.0000E+00  0.8000E+01
  -5.790  0.0000E+00  0.8000E+01
  -5.780  0.0000E+00  0.8000E+01
  -5.770  0.0000E+00  0.8000E+01
  -5.760  0.0000E+00  0.8000E+01
  -5.750  0.0000E+00  0.8000E+01
  -5.740  0.0000E+00  0.8000E+01
  -5.730  0.0000E+00  0.8000E+01
  -5.720  0.0000E+00  0.8000E+01
  -5.710  0.0000E+00  0.8000E+01
  -5.700  0.0000E+00  0.8000E+01
  -5.690  0.0000E+00  0.8000E+01
  -5.680  0.0000E+00  0.8000E+01
  -5.670  0.0000E+00  0.8000E+01
  -5.660  0.0000E+00  0.8000E+01
  -5.650  0.0000E+00  0.8000E+01
  -5.640  0.0000E+00  0.8000E+01
  -5.630  0.0000E+00  0.8000E+01
  -5.620  0.0000E+00  0.8000E+01
  -5.610  0.0000E+00  0.8000E+01
  -5.600  0.0000E+00  0.8000E+01
  -5.590  0.0000E+00  0.8000E+01
  -5.580  0.0000E+00  0.8000E+01
  -5.570  0.0000E+00  0.8000E+01
  -5.560  0.0000E+00  0.8000E+01
  -5.550  0.0000E+00  0.8000E+01
  -5.540  0.0000E+00  0.8000E+01
  -5.530  0.0000E+00  0.8000E+01
  -5.520  0.0000E+00  0.8000E+01
  -5.510  0.0000E+00  0.8000E+01
  -5.500  0.0000E+00  0.8000E+01
  -5.490  0.0000E+00  0.8000E+01
  -5.480  0.0000E+00  0.8000E+01
  -5.470  0.0000E+00  0.8000E+01
  -5.460  0.0000E+00  0.8000E+01
  -5.450  0.0000E+00  0.8000E+01
  -5.440  0.0000E+00  0.8000E+01
  -5.430  0.0000E+00  0.8000E+01
  -5.420  0.0000E+00  0.8000E+01
  -5.410  0.0000E+00  0.8000E+01
  -5.400  0.0000E+00  0.8000E+01
  -5.390  0.0000E+00  0.8000E+01
  -5.380  0.0000E+00  0.8000E+01
  -5.370  0.0000E+00  0.8000E+01
  -5.360  0.0000E+00  0.8000E+01
  -5.350  0.0000E+00  0.8000E+01
  -5.340  0.0000E+00  0.8000E+01
  -5.330  0.0000E+00  0.8000E+01
  -5.320  0.0000E+00  0.8000E+01
  -5.310  0.0000E+00  0.8000E+01
  -5.300  0.0000E+00  0.8000E+01
  -5.290  0.0000E+00  0.8000E+01
  -5.280  0.0000E+00  0.8000E+01
  -5.270  0.0000E+00  0.8000E+01
  -5.260  0.0000E+00  0.8000E+01
  -5.250  0.0000E+00  0.8000E+01
  -5.240  0.0000E+00  0.8000E+01
  -5.230  0.0000E+00  0.8000E+01
  -5.220  0.0000E+00  0.8000E+01
  -5.210  0.0000E+00  0.8000E+01
  -5.200  0.0000E+00  0.8000E+01
  -5.190  0.0000E+00  0.8000E+01
  -5.180  0.0000E+00  0.8000E+01
  -5.170  0.0000E+00  0.8000E+01
  -5.160  0.0000E+00  0.8000E+01
  -5.150  0.0000E+00  0.8000E+01
  -5.140  0.0000E+00  0.8000E+01
  -5.130  0.0000E+00  0.8000E+01
  -5.120  0.0000E+00  0.8000E+01
  -5.110  0.0000E+00  0.8000E+01
  -5.100  0.0000E+00  0.8000E+01
  -5.090  0.0000E+00  0.8000E+01
  -5.080  0.0000E+00  0.8000E+01
  -5.070  0.0000E+00  0.8000E+01
  -5.060  0.0000E+00  0.8000E+01
  -5.050  0.0000E+00  0.8000E+01
  -5.040  0.0000E+00  0.8000E+01
  -5.030  0.0000E+00  0.8000E+01
  -5.020  0.0000E+00  0.8000E+01
  -5.010  0.0000E+00  0.8000E+01
  -5.000  0.0000E+00  0.8000E+01
  -4.990  0.0000E+00  0.8000E+01
  -4.980  0.0000E+00  0.8000E+01
  -4.970  0.0000E+00  0.8000E+01
  -4.960  0.0000E+00  0.8000E+01
  -4.950  0.0000E+00  0.8000E+01
  -4.940  0.0000E+00  0.8000E+01
  -4.930  0.0000E+00  0.8000E+01
  -4.920  0.0000E+00  0.8000E+01
  -4.910  0.0000E+00  0.8000E+01
  -4.900  0.0000E+00  0.8000E+01
  -4.890  0.0000E+00  0.8000E+01
  -4.880  0.0000E+00  0.8000E+01
  -4.870  0.0000E+00  0.8000E+01
  -4.860  0.0000E+00  0.8000E+01
  -4.850  0.0000E+00  0.8000E+01
  -4.840  0.0000E+00  0.8000E+01
  -4.830  0.0000E+00  0.8000E+01
  -4.820  0.0000E+00  0.8000E+01
  -4.810  0.0000E+00  0.8000E+01
  -4.800  0.0000E+00  0.8000E+01
  -4.790  0.0000E+00  0.8000E+01
  -4.780  0.0000E+00  0.8000E+01
  -4.770  0.0000E+00  0.8000E+01
  -4.760  0.0000E+00  0.8000E+01
  -4.750  0.0000E+00  0.8000E+01
  -4.740  0.0000E+00  0.8000E+01
  -4.730  0.0000E+00  0.8000E+01
  -4.720  0.0000E+00  0.8000E+01
  -4.710  0.0000E+00  0.8000E+01
  -4.700  0.0000E+00  0.8000E+01
  -4.690  0.0000E+00  0.8000E+01
  -4.680  0.0000E+00  0.8000E+01
  -4.670  0.0000E+00  0.8000E+01
  -4.660  0.0000E+00  0.8000E+01
  -4.650  0.0000E+00  0.8000E+01
  -4.640  0.0000E+00  0.8000E+01
  -4.630  0.0000E+00  0.8000E+01
  -4.620  0.0000E+00  0.8000E+01
  -4.610  0.0000E+00  0.8000E+01
  -4.600  0.0000E+00  0.8000E+01
  -4.590  0.0000E+00  0.8000E+01
  -4.580  0.0000E+00  0.8000E+01
  -4.570  0.0000E+00  0.8000E+01
  -4.560  0.0000E+00  0.8000E+01
  -4.550  0.0000E+00  0.8000E+01
  -4.540  0.0000E+00  0.8000E+01
  -4.530  0.0000E+00  0.8000E+01
  -4.520  0.0000E+00  0.8000E+01
  -4.510  0.0000E+00  0.8000E+01
  -4.500  0.0000E+00  0.8000E+01
  -4.490  0.0000E+00  0.8000E+01
  -4.480  0.0000E+00  0.8000E+01
  -4.470  0.0000E+00  0.8000E+01
  -4.460  0.0000E+00  0.8000E+01
  -4.450  0.0000E+00  0.8000E+01
  -4.440  0.0000E+00  0.8000E+01
  -4.430  0.0000E+00  0.8000E+01
  -4.420  0.0000E+00  0.8000E+01
  -4.410  0.0000E+00  0.8000E+01
  -4.400  0.0000E+00  0.8000E+01
  -4.390  0.0000E+00  0.8000E+01
  -4.380  0.0000E+00  0.8000E+01
  -4.370  0.0000E+00  0.8000E+01
  -4.360  0.0000E+00  0.8000E+01
  -4.350  0.0000E+00  0.8000E+01
  -4.340  0.0000E+00  0.8000E+01
  -4.330  0.0000E+00  0.8000E+01
  -4.320  0.0000E+00  0.8000E+01
  -4.310  0.0000E+00  0.8000E+01
  -4.300  0.0000E+00  0.8000E+01
  -4.290  0.0000E+00  0.8000E+01
  -4.280  0.0000E+00  0.8000E+01
  -4.270  0.0000E+00  0.8000E+01
  -4.260  0.0000E+00  0.8000E+01
  -4.250  0.0000E+00  0.8000E+01
  -4.240  0.0000E+00  0.8000E+01
  -4.230  0.0000E+00  0.8000E+01
  -4.220  0.0000E+00  0.8000E+01
  -4.210  0.0000E+00  0.8000E+01
  -4.200  0.0000E+00  0.8000E+01
  -4.190  0.0000E+00  0.8000E+01
  -4.180  0.0000E+00  0.8000E+01
  -4.170  0.0000E+00  0.8000E+01
  -4.160  0.0000E+00  0.8000E+01
  -4.150  0.0000E+00  0.8000E+01
  -4.140  0.0000E+00  0.8000E+01
  -4.130  0.0000E+00  0.8000E+01
  -4.120  0.0000E+00  0.8000E+01
  -4.110  0.0000E+00  0.8000E+01
  -4.100  0.0000E+00  0.8000E+01
  -4.090  0.0000E+00  0.8000E+01
  -4.080  0.0000E+00  0.8000E+01
  -4.070  0.0000E+00  0.8000E+01
  -4.060  0.0000E+00  0.8000E+01
  -4.050  0.0000E+00  0.8000E+01
  -4.040  0.0000E+00  0.8000E+01
  -4.030  0.0000E+00  0.8000E+01
  -4.020  0.0000E+00  0.8000E+01
  -4.010  0.0000E+00  0.8000E+01
  -4.000  0.0000E+00  0.8000E+01
  -3.990  0.0000E+00  0.8000E+01
  -3.980  0.0000E+00  0.8000E+01
  -3.970  0.0000E+00  0.8000E+01
  -3.960  0.0000E+00  0.8000E+01
  -3.950  0.0000E+00  0.8000E+01
  -3.940  0.0000E+00  0.8000E+01
  -3.930  0.0000E+00  0.8000E+01
  -3.920  0.0000E+00  0.8000E+01
  -3.910  0.0000E+00  0.8000E+01
  -3.900  0.0000E+00  0.8000E+01
  -3.890  0.0000E+00  0.8000E+01
  -3.880  0.0000E+00  0.8000E+01
  -3.870  0.0000E+00  0.8000E+01
  -3.860  0.0000E+00  0.8000E+01
  -3.850  0.0000E+00  0.8000E+01
  -3.840  0.0000E+00  0.8000E+01
  -3.830  0.0000E+00  0.8000E+01
  -3.820  0.0000E+00  0.8000E+01
  -3.810  0.0000E+00  0.8000E+01
  -3.800  0.0000E+00  0.8000E+01
  -3.790  0.0000E+00  0.8000E+01
  -3.780  0.0000E+00  0.8000E+01
  -3.770  0.0000E+00  0.8000E+01
  -3.760  0.0000E+00  0.8000E+01
  -3.750  0.0000E+00  0.8000E+01
  -3.740  0.0000E+00  0.8000E+01
  -3.730  0.0000E+00  0.8000E+01
  -3.720  0.0000E+00  0.8000E+01
  -3.710  0.0000E+00  0.8000E+01
  -3.700  0.0000E+00  0.8000E+01
  -3.690  0.0000E+00  0.8000E+01
  -3.680  0.0000E+00  0.8000E+01
  -3.670  0.0000E+00  0.8000E+01
  -3.660  0.0000E+00  0.8000E+01
  -3.650  0.0000E+00  0.8000E+01
  -3.640  0.0000E+00  0.8000E+01
  -3.630  0.0000E+00  0.8000E+01
  -3.620  0.0000E+00  0.8000E+01
  -3.610  0.0000E+00  0.8000E+01
  -3.600  0.0000E+00  0.8000E+01
  -3.590  0.0000E+00  0.8000E+01
  -3.580  0.0000E+00  0.8000E+01
  -3.570  0.0000E+00  0.8000E+01
  -3.560  0.0000E+00  0.8000E+01
  -3.550  0.0000E+00  0.8000E+01
  -3.540  0.0000E+00  0.8000E+01
  -3.530  0.0000E+00  0.8000E+01
  -3.520  0.0000E+00  0.8000E+01
  -3.510  0.0000E+00  0.8000E+01
  -3.500  0.0000E+00  0.8000E+01
  -3.490  0.0000E+00  0.8000E+01
  -3.480  0.0000E+00  0.8000E+01
  -3.470  0.0000E+00  0.8000E+01
  -3.460  0.0000E+00  0.8000E+01
  -3.450  0.0000E+00  0.8000E+01
  -3.440  0.0000E+00  0.8000E+01
  -3.430  0.0000E+00  0.8000E+01
  -3.420  0.0000E+00  0.8000E+01
  -3.410  0.0000E+00  0.8000E+01
  -3.400  0.0000E+00  0.8000E+01
  -3.390  0.0000E+00  0.8000E+01
  -3.380  0.0000E+00  0.8000E+01
  -3.370  0.0000E+00  0.8000E+01
  -3.360  0.0000E+00  0.8000E+01
  -3.350  0.0000E+00  0.8000E+01
  -3.340  0.0000E+00  0.8000E+01
  -3.330  0.0000E+00  0.8000E+01
  -3.320  0.0000E+00  0.8000E+01
  -3.310  0.0000E+00  0.8000E+01
  -3.300  0.0000E+00  0.8000E+01
  -3.290  0.0000E+00  0.8000E+01
  -3.280  0.0000E+00  0.8000E+01
  -3.270  0.0000E+00  0.8000E+01
  -3.260  0.0000E+00  0.8000E+01
  -3.250  0.0000E+00  0.8000E+01
  -3.240  0.0000E+00  0.8000E+01
  -3.230  0.0000E+00  0.8000E+01
  -3.220  0.0000E+00  0.8000E+01
  -3.210  0.0000E+00  0.8000E+01
  -3.200  0.0000E+00  0.8000E+01
  -3.190  0.0000E+00  0.8000E+01
  -3.180  0.0000E+00  0.8000E+01
  -3.170  0.0000E+00  0.8000E+01
  -3.160  0.0000E+00  0.8000E+01
  -3.150  0.0000E+00  0.8000E+01
  -3.140  0.0000E+00  0.8000E+01
  -3.130  0.0000E+00  0.8000E+01
  -3.120  0.0000E+00  0.8000E+01
  -3.110  0.0000E+00  0.8000E+01
  -3.100  0.0000E+00  0.8000E+01
  -3.090  0.0000E+00  0.8000E+01
  -3.080  0.0000E+00  0.8000E+01
  -3.070  0.0000E+00  0.8000E+01
  -3.060  0.0000E+00  0.8000E+01
  -3.050  0.0000E+00  0.8000E+01
  -3.040  0.0000E+00  0.8000E+01
  -3.030  0.0000E+00  0.8000E+01
  -3.020  0.0000E+00  0.8000E+01
  -3.010  0.0000E+00  0.8000E+01
  -3.000  0.0000E+00  0.8000E+01
  -2.990  0.0000E+00  0.8000E+01
  -2.980  0.0000E+00  0.8000E+01
  -2.970  0.0000E+00  0.8000E+01
  -2.960  0.0000E+00  0.8000E+01
  -2.950  0.0000E+00  0.8000E+01
  -2.940  0.0000E+00  0.8000E+01
  -2.930  0.0000E+00  0.8000E+01
  -2.920  0.0000E+00  0.8000E+01
  -2.910  0.0000E+00  0.8000E+01
  -2.900  0.0000E+00  0.8000E+01
  -2.890  0.0000E+00  0.8000E+01
  -2.880  0.0000E+00  0.8000E+01
  -2.870  0.0000E+00  0.8000E+01
  -2.860  0.0000E+00  0.8000E+01
  -2.850  0.0000E+00  0.8000E+01
  -2.840  0.0000E+00  0.8000E+01
  -2.830  0.0000E+00  0.8000E+01
  -2.820  0.0000E+00  0.8000E+01
  -2.810  0.0000E+00  0.8000E+01
  -2.800  0.0000E+00  0.8000E+01
  -2.790  0.0000E+00  0.8000E+01
  -2.780  0.0000E+00  0.8000E+01
  -2.770  0.0000E+00  0.8000E+01
  -2.760  0.0000E+00  0.8000E+01
  -2.750  0.0000E+00  0.8000E+01
  -2.740  0.0000E+00  0.8000E+01
  -2.730  0.6974E+00  0.8002E+01
  -2.720  0.8973E+00  0.8009E+01
  -2.710  0.1312E+01  0.8020E+01
  -2.700  0.1789E+01  0.8036E+01
  -2.690  0.2297E+01  0.8056E+01
  -2.680  0.2948E+01  0.8082E+01
  -2.670  0.3535E+01  0.8115E+01
  -2.660  0.3766E+01  0.8151E+01
  -2.650  0.4177E+01  0.8191E+01
  -2.640  0.4758E+01  0.8236E+01
  -2.630  0.5979E+01  0.8288E+01
  -2.620  0.6121E+01  0.8347E+01
  -2.610  0.6504E+01  0.8410E+01
  -2.600  0.6716E+01  0.8477E+01
  -2.590  0.6828E+01  0.8544E+01
  -2.580  0.6926E+01  0.8613E+01
  -2.570  0.6475E+01  0.8680E+01
  -2.560  0.6068E+01  0.8743E+01
  -2.550  0.6025E+01  0.8803E+01
  -2.540  0.6050E+01  0.8864E+01
  -2.530  0.6052E+01  0.8924E+01
  -2.520  0.6100E+01  0.8985E+01
  -2.510  0.6122E+01  0.9046E+01
  -2.500  0.5964E+01  0.9106E+01
  -2.490  0.5636E+01  0.9164E+01
  -2.480  0.5305E+01  0.9219E+01
  -2.470  0.4979E+01  0.9271E+01
  -2.460  0.4676E+01  0.9319E+01
  -2.450  0.4389E+01  0.9364E+01
  -2.440  0.4292E+01  0.9407E+01
  -2.430  0.4216E+01  0.9450E+01
  -2.420  0.4144E+01  0.9492E+01
  -2.410  0.4000E+01  0.9533E+01
  -2.400  0.3809E+01  0.9572E+01
  -2.390  0.3623E+01  0.9609E+01
  -2.380  0.3530E+01  0.9644E+01
  -2.370  0.3465E+01  0.9679E+01
  -2.360  0.3404E+01  0.9714E+01
  -2.350  0.3345E+01  0.9747E+01
  -2.340  0.3289E+01  0.9781E+01
  -2.330  0.3238E+01  0.9813E+01
  -2.320  0.3198E+01  0.9845E+01
  -2.310  0.3174E+01  0.9877E+01
  -2.300  0.3146E+01  0.9909E+01
  -2.290  0.3129E+01  0.9940E+01
  -2.280  0.3130E+01  0.9971E+01
  -2.270  0.3126E+01  0.1000E+02
  -2.260  0.3101E+01  0.1003E+02
  -2.250  0.3072E+01  0.1006E+02
  -2.240  0.3062E+01  0.1010E+02
  -2.230  0.3049E+01  0.1013E+02
  -2.220  0.3029E+01  0.1016E+02
  -2.210  0.2996E+01  0.1019E+02
  -2.200  0.2962E+01  0.1022E+02
  -2.190  0.2920E+01  0.1025E+02
  -2.180  0.2880E+01  0.1027E+02
  -2.170  0.2855E+01  0.1030E+02
  -2.160  0.2851E+01  0.1033E+02
  -2.150  0.2785E+01  0.1036E+02
  -2.140  0.2684E+01  0.1039E+02
  -2.130  0.2651E+01  0.1041E+02
  -2.120  0.2620E+01  0.1044E+02
  -2.110  0.2592E+01  0.1047E+02
  -2.100  0.2566E+01  0.1049E+02
  -2.090  0.2548E+01  0.1052E+02
  -2.080  0.2534E+01  0.1054E+02
  -2.070  0.2518E+01  0.1057E+02
  -2.060  0.2504E+01  0.1059E+02
  -2.050  0.2495E+01  0.1062E+02
  -2.040  0.2496E+01  0.1064E+02
  -2.030  0.2501E+01  0.1067E+02
  -2.020  0.2508E+01  0.1069E+02
  -2.010  0.2521E+01  0.1072E+02
  -2.000  0.2535E+01  0.1074E+02
  -1.990  0.2546E+01  0.1077E+02
  -1.980  0.2553E+01  0.1079E+02
  -1.970  0.2563E+01  0.1082E+02
  -1.960  0.2544E+01  0.1085E+02
  -1.950  0.2562E+01  0.1087E+02
  -1.940  0.2564E+01  0.1090E+02
  -1.930  0.2561E+01  0.1092E+02
  -1.920  0.2558E+01  0.1095E+02
  -1.910  0.2569E+01  0.1097E+02
  -1.900  0.2574E+01  0.1100E+02
  -1.890  0.2570E+01  0.1103E+02
  -1.880  0.2560E+01  0.1105E+02
  -1.870  0.2551E+01  0.1108E+02
  -1.860  0.2547E+01  0.1110E+02
  -1.850  0.2552E+01  0.1113E+02
  -1.840  0.2561E+01  0.1115E+02
  -1.830  0.2535E+01  0.1118E+02
  -1.820  0.2488E+01  0.1120E+02
  -1.810  0.2483E+01  0.1123E+02
  -1.800  0.2479E+01  0.1125E+02
  -1.790  0.2477E+01  0.1128E+02
  -1.780  0.2478E+01  0.1130E+02
  -1.770  0.2480E+01  0.1133E+02
  -1.760  0.2488E+01  0.1135E+02
  -1.750  0.2501E+01  0.1138E+02
  -1.740  0.2509E+01  0.1140E+02
  -1.730  0.2518E+01  0.1143E+02
  -1.720  0.2528E+01  0.1145E+02
  -1.710  0.2567E+01  0.1148E+02
  -1.700  0.2617E+01  0.1150E+02
  -1.690  0.2676E+01  0.1153E+02
  -1.680  0.2741E+01  0.1156E+02
  -1.670  0.2808E+01  0.1159E+02
  -1.660  0.2901E+01  0.1161E+02
  -1.650  0.3098E+01  0.1164E+02
  -1.640  0.3218E+01  0.1168E+02
  -1.630  0.3324E+01  0.1171E+02
  -1.620  0.3465E+01  0.1174E+02
  -1.610  0.3639E+01  0.1178E+02
  -1.600  0.3823E+01  0.1182E+02
  -1.590  0.4123E+01  0.1185E+02
  -1.580  0.4662E+01  0.1190E+02
  -1.570  0.6252E+01  0.1195E+02
  -1.560  0.7694E+01  0.1202E+02
  -1.550  0.8915E+01  0.1211E+02
  -1.540  0.1030E+02  0.1220E+02
  -1.530  0.8960E+01  0.1230E+02
  -1.520  0.7869E+01  0.1238E+02
  -1.510  0.7015E+01  0.1246E+02
  -1.500  0.6726E+01  0.1252E+02
  -1.490  0.1022E+02  0.1261E+02
  -1.480  0.1319E+02  0.1273E+02
  -1.470  0.1364E+02  0.1287E+02
  -1.460  0.1151E+02  0.1299E+02
  -1.450  0.1037E+02  0.1310E+02
  -1.440  0.9255E+01  0.1320E+02
  -1.430  0.9526E+01  0.1329E+02
  -1.420  0.7946E+01  0.1338E+02
  -1.410  0.6654E+01  0.1346E+02
  -1.400  0.6301E+01  0.1352E+02
  -1.390  0.5800E+01  0.1358E+02
  -1.380  0.4724E+01  0.1363E+02
  -1.370  0.4095E+01  0.1368E+02
  -1.360  0.4120E+01  0.1372E+02
  -1.350  0.4616E+01  0.1376E+02
  -1.340  0.4998E+01  0.1381E+02
  -1.330  0.4941E+01  0.1386E+02
  -1.320  0.4668E+01  0.1391E+02
  -1.310  0.4252E+01  0.1395E+02
  -1.300  0.4015E+01  0.1399E+02
  -1.290  0.4006E+01  0.1403E+02
  -1.280  0.3908E+01  0.1407E+02
  -1.270  0.3856E+01  0.1411E+02
  -1.260  0.3854E+01  0.1415E+02
  -1.250  0.3921E+01  0.1419E+02
  -1.240  0.3954E+01  0.1423E+02
  -1.230  0.3948E+01  0.1427E+02
  -1.220  0.3984E+01  0.1431E+02
  -1.210  0.4070E+01  0.1435E+02
  -1.200  0.4191E+01  0.1439E+02
  -1.190  0.4379E+01  0.1443E+02
  -1.180  0.4644E+01  0.1448E+02
  -1.170  0.5170E+01  0.1453E+02
  -1.160  0.5629E+01  0.1458E+02
  -1.150  0.6214E+01  0.1464E+02
  -1.140  0.6703E+01  0.1470E+02
  -1.130  0.7109E+01  0.1477E+02
  -1.120  0.7316E+01  0.1485E+02
  -1.110  0.7342E+01  0.1492E+02
  -1.100  0.7433E+01  0.1499E+02
  -1.090  0.7667E+01  0.1507E+02
  -1.080  0.7908E+01  0.1515E+02
  -1.070  0.8077E+01  0.1523E+02
  -1.060  0.8350E+01  0.1531E+02
  -1.050  0.8660E+01  0.1539E+02
  -1.040  0.8696E+01  0.1548E+02
  -1.030  0.8557E+01  0.1557E+02
  -1.020  0.8331E+01  0.1565E+02
  -1.010  0.8054E+01  0.1573E+02
  -1.000  0.7702E+01  0.1581E+02
  -0.990  0.7249E+01  0.1589E+02
  -0.980  0.6939E+01  0.1596E+02
  -0.970  0.6956E+01  0.1603E+02
  -0.960  0.6993E+01  0.1610E+02
  -0.950  0.7005E+01  0.1617E+02
  -0.940  0.7068E+01  0.1624E+02
  -0.930  0.7176E+01  0.1631E+02
  -0.920  0.7296E+01  0.1638E+02
  -0.910  0.7515E+01  0.1645E+02
  -0.900  0.7784E+01  0.1653E+02
  -0.890  0.8228E+01  0.1661E+02
  -0.880  0.9625E+01  0.1670E+02
  -0.870  0.1188E+02  0.1681E+02
  -0.860  0.1099E+02  0.1692E+02
  -0.850  0.1099E+02  0.1703E+02
  -0.840  0.1163E+02  0.1714E+02
  -0.830  0.1291E+02  0.1726E+02
  -0.820  0.1595E+02  0.1741E+02
  -0.810  0.1601E+02  0.1757E+02
  -0.800  0.1421E+02  0.1772E+02
  -0.790  0.1409E+02  0.1786E+02
  -0.780  0.1258E+02  0.1799E+02
  -0.770  0.1273E+02  0.1811E+02
  -0.760  0.1314E+02  0.1824E+02
  -0.750  0.1234E+02  0.1837E+02
  -0.740  0.1240E+02  0.1849E+02
  -0.730  0.1275E+02  0.1862E+02
  -0.720  0.1298E+02  0.1875E+02
  -0.710  0.1293E+02  0.1888E+02
  -0.700  0.1247E+02  0.1900E+02
  -0.690  0.1311E+02  0.1913E+02
  -0.680  0.1455E+02  0.1927E+02
  -0.670  0.1451E+02  0.1941E+02
  -0.660  0.1335E+02  0.1956E+02
  -0.650  0.1355E+02  0.1969E+02
  -0.640  0.1480E+02  0.1983E+02
  -0.630  0.1651E+02  0.1999E+02
  -0.620  0.1978E+02  0.2018E+02
  -0.610  0.2201E+02  0.2039E+02
  -0.600  0.2206E+02  0.2061E+02
  -0.590  0.2038E+02  0.2083E+02
  -0.580  0.1885E+02  0.2102E+02
  -0.570  0.1839E+02  0.2121E+02
  -0.560  0.1837E+02  0.2139E+02
  -0.550  0.1645E+02  0.2158E+02
  -0.540  0.1592E+02  0.2174E+02
  -0.530  0.1581E+02  0.2189E+02
  -0.520  0.1589E+02  0.2205E+02
  -0.510  0.1426E+02  0.2221E+02
  -0.500  0.1362E+02  0.2234E+02
  -0.490  0.1340E+02  0.2248E+02
  -0.480  0.1321E+02  0.2261E+02
  -0.470  0.1367E+02  0.2274E+02
  -0.460  0.1329E+02  0.2288E+02
  -0.450  0.1335E+02  0.2301E+02
  -0.440  0.1372E+02  0.2315E+02
  -0.430  0.1364E+02  0.2329E+02
  -0.420  0.1331E+02  0.2342E+02
  -0.410  0.1311E+02  0.2355E+02
  -0.400  0.1277E+02  0.2368E+02
  -0.390  0.1224E+02  0.2381E+02
  -0.380  0.1171E+02  0.2393E+02
  -0.370  0.1162E+02  0.2404E+02
  -0.360  0.1147E+02  0.2416E+02
  -0.350  0.1079E+02  0.2427E+02
  -0.340  0.1037E+02  0.2438E+02
  -0.330  0.1010E+02  0.2448E+02
  -0.320  0.9910E+01  0.2458E+02
  -0.310  0.9742E+01  0.2468E+02
  -0.300  0.9382E+01  0.2477E+02
  -0.290  0.9196E+01  0.2487E+02
  -0.280  0.8895E+01  0.2496E+02
  -0.270  0.8645E+01  0.2504E+02
  -0.260  0.8319E+01  0.2513E+02
  -0.250  0.8101E+01  0.2521E+02
  -0.240  0.7869E+01  0.2529E+02
  -0.230  0.7307E+01  0.2537E+02
  -0.220  0.6724E+01  0.2544E+02
  -0.210  0.6570E+01  0.2550E+02
  -0.200  0.6353E+01  0.2557E+02
  -0.190  0.6752E+01  0.2563E+02
  -0.180  0.7264E+01  0.2570E+02
  -0.170  0.5324E+01  0.2577E+02
  -0.160  0.3056E+01  0.2581E+02
  -0.150  0.1536E+01  0.2583E+02
  -0.140  0.1475E+01  0.2585E+02
  -0.130  0.1425E+01  0.2586E+02
  -0.120  0.1383E+01  0.2588E+02
  -0.110  0.1333E+01  0.2589E+02
  -0.100  0.1230E+01  0.2590E+02
  -0.090  0.1103E+01  0.2591E+02
  -0.080  0.9586E+00  0.2592E+02
  -0.070  0.8031E+00  0.2593E+02
  -0.060  0.6519E+00  0.2594E+02
  -0.050  0.5552E+00  0.2595E+02
  -0.040  0.4831E+00  0.2595E+02
  -0.030  0.4272E+00  0.2596E+02
  -0.020  0.3788E+00  0.2596E+02
  -0.010  0.3390E+00  0.2596E+02
   0.000  0.3083E+00  0.2597E+02
   0.010  0.2810E+00  0.2597E+02
   0.020  0.2566E+00  0.2597E+02
   0.030  0.2350E+00  0.2598E+02
   0.040  0.2162E+00  0.2598E+02
   0.050  0.1999E+00  0.2598E+02
   0.060  0.1846E+00  0.2598E+02
   0.070  0.1701E+00  0.2598E+02
   0.080  0.1567E+00  0.2599E+02
   0.090  0.1446E+00  0.2599E+02
   0.100  0.1336E+00  0.2599E+02
   0.110  0.1238E+00  0.2599E+02
   0.120  0.1151E+00  0.2599E+02
   0.130  0.1075E+00  0.2599E+02
   0.140  0.1003E+00  0.2599E+02
   0.150  0.9329E-01  0.2599E+02
   0.160  0.8651E-01  0.2599E+02
   0.170  0.7994E-01  0.2600E+02
   0.180  0.7360E-01  0.2600E+02
   0.190  0.6701E-01  0.2600E+02
   0.200  0.6010E-01  0.2600E+02
   0.210  0.5287E-01  0.2600E+02
   0.220  0.4533E-01  0.2600E+02
   0.230  0.3747E-01  0.2600E+02
   0.240  0.2929E-01  0.2600E+02
   0.250  0.2122E-01  0.2600E+02
   0.260  0.1444E-01  0.2600E+02
   0.270  0.8957E-02  0.2600E+02
   0.280  0.4778E-02  0.2600E+02
   0.290  0.1901E-02  0.2600E+02
   0.300  0.3271E-03  0.2600E+02
   0.310  0.0000E+00  0.2600E+02
   0.320  0.0000E+00  0.2600E+02
   0.330  0.0000E+00  0.2600E+02
   0.340  0.0000E+00  0.2600E+02
   0.350  0.0000E+00  0.2600E+02
   0.360  0.0000E+00  0.2600E+02
   0.370  0.0000E+00  0.2600E+02
   0.380  0.0000E+00  0.2600E+02
   0.390  0.0000E+00  0.2600E+02
   0.400  0.0000E+00  0.2600E+02
   0.410  0.0000E+00  0.2600E+02
   0.420  0.0000E+00  0.2600E+02
   0.430  0.0000E+00  0.2600E+02
   0.440  0.0000E+00  0.2600E+02
   0.450  0.0000E+00  0.2600E+02
   0.460  0.0000E+00  0.2600E+02
   0.470  0.0000E+00  0.2600E+02
   0.480  0.0000E+00  0.2600E+02
   0.490  0.0000E+00  0.2600E+02
   0.500  0.0000E+00  0.2600E+02
   0.510  0.0000E+00  0.2600E+02
   0.520  0.0000E+00  0.2600E+02
   0.530  0.0000E+00  0.2600E+02
   0.540  0.0000E+00  0.2600E+02
   0.550  0.0000E+00  0.2600E+02
   0.560  0.0000E+00  0.2600E+02
   0.570  0.0000E+00  0.2600E+02
   0.580  0.0000E+00  0.2600E+02
   0.590  0.0000E+00  0.2600E+02
   0.600  0.0000E+00  0.2600E+02
   0.610  0.0000E+00  0.2600E+02
   0.620  0.0000E+00  0.2600E+02
   0.630  0.0000E+00  0.2600E+02
   0.640  0.0000E+00  0.2600E+02
   0.650  0.0000E+00  0.2600E+02
   0.660  0.0000E+00  0.2600E+02
   0.670  0.0000E+00  0.2600E+02
   0.680  0.0000E+00  0.2600E+02
   0.690  0.0000E+00  0.2600E+02
   0.700  0.0000E+00  0.2600E+02
   0.710  0.0000E+00  0.2600E+02
   0.720  0.0000E+00  0.2600E+02
   0.730  0.0000E+00  0.2600E+02
   0.740  0.0000E+00  0.2600E+02
   0.750  0.0000E+00  0.2600E+02
   0.760  0.0000E+00  0.2600E+02
   0.770  0.0000E+00  0.2600E+02
   0.780  0.0000E+00  0.2600E+02
   0.790  0.0000E+00  0.2600E+02
   0.800  0.0000E+00  0.2600E+02
   0.810  0.0000E+00  0.2600E+02
   0.820  0.0000E+00  0.2600E+02
   0.830  0.0000E+00  0.2600E+02
   0.840  0.0000E+00  0.2600E+02
   0.850  0.0000E+00  0.2600E+02
   0.860  0.0000E+00  0.2600E+02
   0.870  0.0000E+00  0.2600E+02
   0.880  0.0000E+00  0.2600E+02
   0.890  0.0000E+00  0.2600E+02
   0.900  0.0000E+00  0.2600E+02
   0.910  0.0000E+00  0.2600E+02
   0.920  0.0000E+00  0.2600E+02
   0.930  0.0000E+00  0.2600E+02
   0.940  0.0000E+00  0.2600E+02
   0.950  0.0000E+00  0.2600E+02
   0.960  0.0000E+00  0.2600E+02
   0.970  0.0000E+00  0.2600E+02
   0.980  0.0000E+00  0.2600E+02
   0.990  0.0000E+00  0.2600E+02
   1.000  0.0000E+00  0.2600E+02
   1.010  0.0000E+00  0.2600E+02
   1.020  0.0000E+00  0.2600E+02
   1.030  0.0000E+00  0.2600E+02
   1.040  0.0000E+00  0.2600E+02
   1.050  0.0000E+00  0.2600E+02
   1.060  0.0000E+00  0.2600E+02
   1.070  0.0000E+00  0.2600E+02
   1.080  0.0000E+00  0.2600E+02
   1.090  0.0000E+00  0.2600E+02
   1.100  0.0000E+00  0.2600E+02
   1.110  0.0000E+00  0.2600E+02
   1.120  0.0000E+00  0.2600E+02
   1.130  0.0000E+00  0.2600E+02
   1.140  0.0000E+00  0.2600E+02
   1.150  0.0000E+00  0.2600E+02
   1.160  0.0000E+00  0.2600E+02
   1.170  0.0000E+00  0.2600E+02
   1.180  0.0000E+00  0.2600E+02
   1.190  0.0000E+00  0.2600E+02
   1.200  0.0000E+00  0.2600E+02
   1.210  0.0000E+00  0.2600E+02
   1.220  0.0000E+00  0.2600E+02
   1.230  0.0000E+00  0.2600E+02
   1.240  0.0000E+00  0.2600E+02
   1.250  0.0000E+00  0.2600E+02
   1.260  0.0000E+00  0.2600E+02
   1.270  0.0000E+00  0.2600E+02
   1.280  0.0000E+00  0.2600E+02
   1.290  0.0000E+00  0.2600E+02
   1.300  0.0000E+00  0.2600E+02
   1.310  0.0000E+00  0.2600E+02
   1.320  0.0000E+00  0.2600E+02
   1.330  0.0000E+00  0.2600E+02
   1.340  0.0000E+00  0.2600E+02
   1.350  0.0000E+00  0.2600E+02
   1.360  0.0000E+00  0.2600E+02
   1.370  0.0000E+00  0.2600E+02
   1.380  0.0000E+00  0.2600E+02
   1.390  0.0000E+00  0.2600E+02
   1.400  0.0000E+00  0.2600E+02
   1.410  0.0000E+00  0.2600E+02
   1.420  0.0000E+00  0.2600E+02
   1.430  0.0000E+00  0.2600E+02
   1.440  0.0000E+00  0.2600E+02
   1.450  0.0000E+00  0.2600E+02
   1.460  0.0000E+00  0.2600E+02
   1.470  0.0000E+00  0.2600E+02
   1.480  0.0000E+00  0.2600E+02
   1.490  0.0000E+00  0.2600E+02
   1.500  0.0000E+00  0.2600E+02
   1.510  0.0000E+00  0.2600E+02
   1.520  0.0000E+00  0.2600E+02
   1.530  0.0000E+00  0.2600E+02
   1.540  0.0000E+00  0.2600E+02
   1.550  0.0000E+00  0.2600E+02
   1.560  0.0000E+00  0.2600E+02
   1.570  0.0000E+00  0.2600E+02
   1.580  0.0000E+00  0.2600E+02
   1.590  0.0000E+00  0.2600E+02
   1.600  0.0000E+00  0.2600E+02
   1.610  0.0000E+00  0.2600E+02
   1.620  0.0000E+00  0.2600E+02
   1.630  0.0000E+00  0.2600E+02
   1.640  0.0000E+00  0.2600E+02
   1.650  0.0000E+00  0.2600E+02
   1.660  0.0000E+00  0.2600E+02
   1.670  0.0000E+00  0.2600E+02
   1.680  0.0000E+00  0.2600E+02
   1.690  0.0000E+00  0.2600E+02
   1.700  0.0000E+00  0.2600E+02
   1.710  0.0000E+00  0.2600E+02
   1.720  0.0000E+00  0.2600E+02
   1.730  0.0000E+00  0.2600E+02
   1.740  0.0000E+00  0.2600E+02
   1.750  0.0000E+00  0.2600E+02
   1.760  0.0000E+00  0.2600E+02
   1.770  0.0000E+00  0.2600E+02
   1.780  0.0000E+00  0.2600E+02
   1.790  0.0000E+00  0.2600E+02
   1.800  0.0000E+00  0.2600E+02
   1.810  0.0000E+00  0.2600E+02
   1.820  0.0000E+00  0.2600E+02
   1.830  0.0000E+00  0.2600E+02
   1.840  0.0000E+00  0.2600E+02
   1.850  0.0000E+00  0.2600E+02
   1.860  0.0000E+00  0.2600E+02
   1.870  0.0000E+00  0.2600E+02
   1.880  0.0000E+00  0.2600E+02
   1.890  0.0000E+00  0.2600E+02
   1.900  0.0000E+00  0.2600E+02
   1.910  0.0000E+00  0.2600E+02
   1.920  0.0000E+00  0.2600E+02
   1.930  0.0000E+00  0.2600E+02
   1.940  0.0000E+00  0.2600E+02
   1.950  0.0000E+00  0.2600E+02
   1.960  0.0000E+00  0.2600E+02
   1.970  0.0000E+00  0.2600E+02
   1.980  0.0000E+00  0.2600E+02
   1.990  0.0000E+00  0.2600E+02
   2.000  0.0000E+00  0.2600E+02
   2.010  0.0000E+00  0.2600E+02
   2.020  0.0000E+00  0.2600E+02
   2.030  0.3365E-01  0.2600E+02
   2.040  0.1444E+00  0.2600E+02
   2.050  0.1625E+00  0.2600E+02
   2.060  0.1502E+00  0.2600E+02
   2.070  0.1791E+00  0.2601E+02
   2.080  0.2123E+00  0.2601E+02
   2.090  0.2441E+00  0.2601E+02
   2.100  0.2651E+00  0.2601E+02
   2.110  0.3007E+00  0.2602E+02
   2.120  0.3380E+00  0.2602E+02
   2.130  0.3769E+00  0.2602E+02
   2.140  0.4174E+00  0.2603E+02
   2.150  0.4595E+00  0.2603E+02
   2.160  0.4997E+00  0.2604E+02
   2.170  0.5433E+00  0.2604E+02
   2.180  0.5892E+00  0.2605E+02
   2.190  0.6367E+00  0.2605E+02
   2.200  0.7390E+00  0.2606E+02
   2.210  0.8241E+00  0.2607E+02
   2.220  0.8721E+00  0.2608E+02
   2.230  0.9039E+00  0.2608E+02
   2.240  0.9490E+00  0.2609E+02
   2.250  0.9966E+00  0.2610E+02
   2.260  0.1020E+01  0.2611E+02
   2.270  0.1041E+01  0.2612E+02
   2.280  0.1082E+01  0.2613E+02
   2.290  0.1128E+01  0.2615E+02
   2.300  0.1184E+01  0.2616E+02
   2.310  0.1236E+01  0.2617E+02
   2.320  0.1289E+01  0.2618E+02
   2.330  0.1346E+01  0.2619E+02
   2.340  0.1407E+01  0.2621E+02
   2.350  0.1484E+01  0.2622E+02
   2.360  0.1579E+01  0.2624E+02
   2.370  0.1666E+01  0.2625E+02
   2.380  0.1770E+01  0.2627E+02
   2.390  0.2055E+01  0.2629E+02
   2.400  0.2038E+01  0.2631E+02
   2.410  0.2088E+01  0.2633E+02
   2.420  0.2183E+01  0.2635E+02
   2.430  0.2267E+01  0.2638E+02
   2.440  0.2337E+01  0.2640E+02
   2.450  0.2404E+01  0.2642E+02
   2.460  0.2462E+01  0.2645E+02
   2.470  0.2514E+01  0.2647E+02
   2.480  0.2560E+01  0.2650E+02
   2.490  0.2600E+01  0.2652E+02
   2.500  0.2647E+01  0.2655E+02
   2.510  0.2676E+01  0.2658E+02
   2.520  0.2695E+01  0.2660E+02
   2.530  0.2799E+01  0.2663E+02
   2.540  0.2716E+01  0.2666E+02
   2.550  0.2615E+01  0.2668E+02
   2.560  0.2611E+01  0.2671E+02
   2.570  0.2558E+01  0.2674E+02
   2.580  0.2505E+01  0.2676E+02
   2.590  0.2520E+01  0.2679E+02
   2.600  0.2534E+01  0.2681E+02
   2.610  0.2547E+01  0.2684E+02
   2.620  0.2559E+01  0.2686E+02
   2.630  0.2613E+01  0.2689E+02
   2.640  0.2676E+01  0.2691E+02
   2.650  0.2718E+01  0.2694E+02
   2.660  0.2711E+01  0.2697E+02
   2.670  0.2656E+01  0.2700E+02
   2.680  0.2597E+01  0.2702E+02
   2.690  0.2538E+01  0.2705E+02
   2.700  0.2487E+01  0.2707E+02
   2.710  0.2404E+01  0.2710E+02
   2.720  0.2321E+01  0.2712E+02
   2.730  0.2259E+01  0.2714E+02
   2.740  0.2198E+01  0.2717E+02
   2.750  0.2139E+01  0.2719E+02
   2.760  0.2074E+01  0.2721E+02
   2.770  0.2010E+01  0.2723E+02
   2.780  0.1956E+01  0.2725E+02
   2.790  0.1906E+01  0.2727E+02
   2.800  0.1899E+01  0.2729E+02
   2.810  0.1891E+01  0.2731E+02
   2.820  0.1884E+01  0.2733E+02
   2.830  0.1875E+01  0.2734E+02
   2.840  0.1869E+01  0.2736E+02
   2.850  0.1862E+01  0.2738E+02
   2.860  0.1855E+01  0.2740E+02
   2.870  0.1847E+01  0.2742E+02
   2.880  0.1841E+01  0.2744E+02
   2.890  0.1839E+01  0.2746E+02
   2.900  0.1835E+01  0.2747E+02
   2.910  0.1842E+01  0.2749E+02
   2.920  0.1863E+01  0.2751E+02
   2.930  0.1819E+01  0.2753E+02
   2.940  0.1780E+01  0.2755E+02
   2.950  0.1741E+01  0.2756E+02
   2.960  0.1703E+01  0.2758E+02
   2.970  0.1678E+01  0.2760E+02
   2.980  0.1619E+01  0.2762E+02
   2.990  0.1572E+01  0.2763E+02
   3.000  0.1562E+01  0.2765E+02
   3.010  0.1552E+01  0.2766E+02
   3.020  0.1542E+01  0.2768E+02
   3.030  0.1532E+01  0.2769E+02
   3.040  0.1522E+01  0.2771E+02
   3.050  0.1512E+01  0.2772E+02
   3.060  0.1503E+01  0.2774E+02
   3.070  0.1494E+01  0.2775E+02
   3.080  0.1484E+01  0.2777E+02
   3.090  0.1475E+01  0.2778E+02
   3.100  0.1466E+01  0.2780E+02
   3.110  0.1457E+01  0.2781E+02
   3.120  0.1447E+01  0.2783E+02
   3.130  0.1439E+01  0.2784E+02
   3.140  0.1429E+01  0.2786E+02
   3.150  0.1427E+01  0.2787E+02
   3.160  0.1425E+01  0.2788E+02
   3.170  0.1424E+01  0.2790E+02
   3.180  0.1422E+01  0.2791E+02
   3.190  0.1492E+01  0.2793E+02
   3.200  0.1507E+01  0.2794E+02
   3.210  0.1524E+01  0.2796E+02
   3.220  0.1538E+01  0.2797E+02
   3.230  0.1539E+01  0.2799E+02
   3.240  0.1550E+01  0.2800E+02
   3.250  0.1560E+01  0.2802E+02
   3.260  0.1573E+01  0.2804E+02
   3.270  0.1588E+01  0.2805E+02
   3.280  0.1538E+01  0.2807E+02
   3.290  0.1517E+01  0.2808E+02
   3.300  0.1500E+01  0.2810E+02
   3.310  0.1487E+01  0.2811E+02
   3.320  0.1489E+01  0.2813E+02
   3.330  0.1489E+01  0.2814E+02
   3.340  0.1487E+01  0.2816E+02
   3.350  0.1484E+01  0.2817E+02
   3.360  0.1480E+01  0.2819E+02
   3.370  0.1483E+01  0.2820E+02
   3.380  0.1499E+01  0.2822E+02
   3.390  0.1522E+01  0.2823E+02
   3.400  0.1548E+01  0.2825E+02
   3.410  0.1571E+01  0.2826E+02
   3.420  0.1589E+01  0.2828E+02
   3.430  0.1600E+01  0.2829E+02
   3.440  0.1644E+01  0.2831E+02
   3.450  0.1644E+01  0.2833E+02
   3.460  0.1627E+01  0.2834E+02
   3.470  0.1616E+01  0.2836E+02
   3.480  0.1608E+01  0.2838E+02
   3.490  0.1599E+01  0.2839E+02
   3.500  0.1588E+01  0.2841E+02
   3.510  0.1584E+01  0.2842E+02
   3.520  0.1541E+01  0.2844E+02
   3.530  0.1518E+01  0.2845E+02
   3.540  0.1519E+01  0.2847E+02
   3.550  0.1521E+01  0.2848E+02
   3.560  0.1525E+01  0.2850E+02
   3.570  0.1532E+01  0.2851E+02
   3.580  0.1541E+01  0.2853E+02
   3.590  0.1549E+01  0.2855E+02
   3.600  0.1559E+01  0.2856E+02
   3.610  0.1574E+01  0.2858E+02
   3.620  0.1588E+01  0.2859E+02
   3.630  0.1610E+01  0.2861E+02
   3.640  0.1621E+01  0.2862E+02
   3.650  0.1628E+01  0.2864E+02
   3.660  0.1636E+01  0.2866E+02
   3.670  0.1646E+01  0.2867E+02
   3.680  0.1655E+01  0.2869E+02
   3.690  0.1664E+01  0.2871E+02
   3.700  0.1671E+01  0.2872E+02
   3.710  0.1677E+01  0.2874E+02
   3.720  0.1683E+01  0.2876E+02
   3.730  0.1690E+01  0.2877E+02
   3.740  0.1697E+01  0.2879E+02
   3.750  0.1704E+01  0.2881E+02
   3.760  0.1711E+01  0.2883E+02
   3.770  0.1718E+01  0.2884E+02
   3.780  0.1783E+01  0.2886E+02
   3.790  0.1834E+01  0.2888E+02
   3.800  0.1859E+01  0.2890E+02
   3.810  0.1874E+01  0.2891E+02
   3.820  0.1881E+01  0.2893E+02
   3.830  0.1894E+01  0.2895E+02
   3.840  0.1915E+01  0.2897E+02
   3.850  0.1944E+01  0.2899E+02
   3.860  0.1977E+01  0.2901E+02
   3.870  0.2015E+01  0.2903E+02
   3.880  0.1987E+01  0.2905E+02
   3.890  0.1986E+01  0.2907E+02
   3.900  0.1989E+01  0.2909E+02
   3.910  0.1994E+01  0.2911E+02
   3.920  0.1988E+01  0.2913E+02
   3.930  0.1967E+01  0.2915E+02
   3.940  0.1950E+01  0.2917E+02
   3.950  0.1952E+01  0.2919E+02
   3.960  0.1965E+01  0.2921E+02
   3.970  0.1985E+01  0.2923E+02
   3.980  0.2011E+01  0.2925E+02
   3.990  0.2068E+01  0.2927E+02
   4.000  0.2146E+01  0.2929E+02
   4.010  0.2236E+01  0.2931E+02
   4.020  0.2394E+01  0.2933E+02
   4.030  0.2503E+01  0.2936E+02
   4.040  0.2482E+01  0.2938E+02
   4.050  0.2367E+01  0.2941E+02
   4.060  0.2172E+01  0.2943E+02
   4.070  0.1831E+01  0.2945E+02
   4.080  0.1617E+01  0.2947E+02
   4.090  0.1341E+01  0.2948E+02
   4.100  0.1329E+01  0.2950E+02
   4.110  0.1337E+01  0.2951E+02
   4.120  0.1347E+01  0.2952E+02
   4.130  0.1358E+01  0.2954E+02
   4.140  0.1368E+01  0.2955E+02
   4.150  0.1458E+01  0.2956E+02
   4.160  0.1885E+01  0.2958E+02
   4.170  0.2333E+01  0.2960E+02
   4.180  0.3046E+01  0.2963E+02
   4.190  0.2750E+01  0.2966E+02
   4.200  0.2380E+01  0.2968E+02
   4.210  0.2304E+01  0.2971E+02
   4.220  0.2247E+01  0.2973E+02
   4.230  0.2184E+01  0.2975E+02
   4.240  0.2113E+01  0.2977E+02
   4.250  0.2039E+01  0.2979E+02
   4.260  0.1987E+01  0.2981E+02
   4.270  0.1953E+01  0.2983E+02
   4.280  0.1922E+01  0.2985E+02
   4.290  0.1893E+01  0.2987E+02
   4.300  0.1867E+01  0.2989E+02
   4.310  0.1844E+01  0.2991E+02
   4.320  0.1837E+01  0.2993E+02
   4.330  0.1852E+01  0.2995E+02
   4.340  0.1894E+01  0.2997E+02
   4.350  0.1968E+01  0.2999E+02
   4.360  0.2177E+01  0.3001E+02
   4.370  0.2322E+01  0.3003E+02
   4.380  0.2351E+01  0.3005E+02
   4.390  0.2382E+01  0.3008E+02
   4.400  0.2430E+01  0.3010E+02
   4.410  0.2489E+01  0.3012E+02
   4.420  0.2547E+01  0.3015E+02
   4.430  0.2599E+01  0.3017E+02
   4.440  0.2645E+01  0.3020E+02
   4.450  0.2694E+01  0.3023E+02
   4.460  0.2655E+01  0.3025E+02
   4.470  0.2730E+01  0.3028E+02
   4.480  0.2795E+01  0.3031E+02
   4.490  0.2986E+01  0.3034E+02
   4.500  0.3136E+01  0.3037E+02
   4.510  0.2818E+01  0.3040E+02
   4.520  0.2810E+01  0.3043E+02
   4.530  0.2867E+01  0.3046E+02
   4.540  0.2945E+01  0.3048E+02
   4.550  0.3045E+01  0.3051E+02
   4.560  0.3164E+01  0.3055E+02
   4.570  0.3301E+01  0.3058E+02
   4.580  0.3477E+01  0.3061E+02
   4.590  0.3645E+01  0.3065E+02
   4.600  0.3805E+01  0.3068E+02
   4.610  0.3948E+01  0.3072E+02
   4.620  0.4132E+01  0.3076E+02
   4.630  0.4257E+01  0.3081E+02
   4.640  0.4370E+01  0.3085E+02
   4.650  0.4637E+01  0.3089E+02
   4.660  0.4736E+01  0.3094E+02
   4.670  0.4839E+01  0.3099E+02
   4.680  0.4996E+01  0.3104E+02
   4.690  0.5283E+01  0.3109E+02
   4.700  0.5711E+01  0.3114E+02
   4.710  0.5971E+01  0.3120E+02
   4.720  0.5829E+01  0.3126E+02
   4.730  0.5452E+01  0.3132E+02
   4.740  0.5338E+01  0.3137E+02
   4.750  0.5181E+01  0.3142E+02
   4.760  0.5032E+01  0.3148E+02
   4.770  0.4966E+01  0.3153E+02
   4.780  0.4963E+01  0.3157E+02
   4.790  0.4909E+01  0.3162E+02
   4.800  0.4831E+01  0.3167E+02
   4.810  0.4792E+01  0.3172E+02
   4.820  0.4760E+01  0.3177E+02
   4.830  0.4733E+01  0.3182E+02
   4.840  0.4740E+01  0.3186E+02
   4.850  0.4791E+01  0.3191E+02
   4.860  0.4833E+01  0.3196E+02
   4.870  0.4922E+01  0.3201E+02
   4.880  0.5026E+01  0.3206E+02
   4.890  0.5164E+01  0.3211E+02
   4.900  0.5350E+01  0.3216E+02
   4.910  0.5483E+01  0.3222E+02
   4.920  0.5618E+01  0.3227E+02
   4.930  0.5490E+01  0.3233E+02
   4.940  0.5366E+01  0.3238E+02
   4.950  0.5282E+01  0.3243E+02
   4.960  0.5226E+01  0.3249E+02
   4.970  0.5232E+01  0.3254E+02
   4.980  0.5279E+01  0.3259E+02
   4.990  0.5293E+01  0.3264E+02
   5.000  0.5274E+01  0.3270E+02
   5.010  0.5238E+01  0.3275E+02
   5.020  0.5407E+01  0.3280E+02
   5.030  0.5626E+01  0.3286E+02
   5.040  0.5722E+01  0.3291E+02
   5.050  0.5295E+01  0.3297E+02
   5.060  0.5210E+01  0.3302E+02
   5.070  0.5216E+01  0.3307E+02
   5.080  0.5448E+01  0.3313E+02
   5.090  0.5620E+01  0.3318E+02
   5.100  0.5698E+01  0.3324E+02
   5.110  0.5710E+01  0.3330E+02
   5.120  0.6025E+01  0.3335E+02
   5.130  0.5755E+01  0.3341E+02
   5.140  0.5585E+01  0.3347E+02
   5.150  0.5554E+01  0.3353E+02
   5.160  0.5545E+01  0.3358E+02
   5.170  0.5651E+01  0.3364E+02
   5.180  0.6154E+01  0.3370E+02
   5.190  0.5924E+01  0.3377E+02
   5.200  0.6158E+01  0.3383E+02
   5.210  0.6920E+01  0.3389E+02
   5.220  0.7519E+01  0.3396E+02
   5.230  0.7169E+01  0.3404E+02
   5.240  0.7049E+01  0.3411E+02
   5.250  0.7343E+01  0.3418E+02
   5.260  0.7387E+01  0.3426E+02
   5.270  0.7018E+01  0.3433E+02
   5.280  0.6847E+01  0.3440E+02
   5.290  0.6741E+01  0.3446E+02
   5.300  0.6598E+01  0.3453E+02
   5.310  0.7128E+01  0.3460E+02
   5.320  0.7172E+01  0.3467E+02
   5.330  0.7437E+01  0.3475E+02
   5.340  0.7665E+01  0.3482E+02
   5.350  0.8210E+01  0.3490E+02
   5.360  0.9637E+01  0.3499E+02
   5.370  0.1049E+02  0.3509E+02
   5.380  0.1106E+02  0.3520E+02
   5.390  0.1094E+02  0.3531E+02
   5.400  0.1038E+02  0.3541E+02
   5.410  0.9783E+01  0.3551E+02
   5.420  0.9453E+01  0.3561E+02
   5.430  0.9198E+01  0.3570E+02
   5.440  0.9153E+01  0.3580E+02
   5.450  0.9266E+01  0.3589E+02
   5.460  0.9520E+01  0.3598E+02
   5.470  0.1018E+02  0.3608E+02
   5.480  0.1121E+02  0.3619E+02
   5.490  0.1195E+02  0.3630E+02
   5.500  0.1157E+02  0.3642E+02
   5.510  0.1121E+02  0.3654E+02
   5.520  0.1045E+02  0.3664E+02
   5.530  0.9979E+01  0.3675E+02
   5.540  0.9944E+01  0.3684E+02
   5.550  0.1004E+02  0.3694E+02
   5.560  0.1013E+02  0.3705E+02
   5.570  0.1023E+02  0.3715E+02
   5.580  0.1053E+02  0.3725E+02
   5.590  0.1106E+02  0.3736E+02
   5.600  0.1160E+02  0.3747E+02
   5.610  0.1227E+02  0.3759E+02
   5.620  0.1122E+02  0.3771E+02
   5.630  0.1042E+02  0.3782E+02
   5.640  0.9206E+01  0.3792E+02
   5.650  0.8050E+01  0.3800E+02
   5.660  0.8002E+01  0.3808E+02
   5.670  0.8001E+01  0.3816E+02
   5.680  0.8053E+01  0.3824E+02
   5.690  0.8130E+01  0.3832E+02
   5.700  0.8282E+01  0.3840E+02
   5.710  0.8296E+01  0.3849E+02
   5.720  0.8806E+01  0.3857E+02
   5.730  0.8119E+01  0.3865E+02
   5.740  0.8032E+01  0.3874E+02
   5.750  0.7964E+01  0.3882E+02
   5.760  0.8065E+01  0.3890E+02
   5.770  0.8009E+01  0.3898E+02
   5.780  0.7940E+01  0.3906E+02
   5.790  0.7824E+01  0.3913E+02
   5.800  0.7431E+01  0.3921E+02
   5.810  0.7060E+01  0.3928E+02
   5.820  0.6770E+01  0.3935E+02
   5.830  0.6618E+01  0.3942E+02
   5.840  0.6378E+01  0.3949E+02
   5.850  0.6187E+01  0.3955E+02
   5.860  0.6093E+01  0.3961E+02
   5.870  0.6028E+01  0.3967E+02
   5.880  0.6027E+01  0.3973E+02
   5.890  0.5976E+01  0.3979E+02
   5.900  0.6018E+01  0.3985E+02
   5.910  0.6163E+01  0.3991E+02
   5.920  0.6346E+01  0.3997E+02
   5.930  0.6473E+01  0.4004E+02
   5.940  0.6578E+01  0.4010E+02
   5.950  0.6660E+01  0.4017E+02
   5.960  0.6669E+01  0.4024E+02
   5.970  0.6690E+01  0.4030E+02
   5.980  0.6741E+01  0.4037E+02
   5.990  0.6774E+01  0.4044E+02
   6.000  0.6858E+01  0.4051E+02
   6.010  0.6592E+01  0.4057E+02
   6.020  0.5745E+01  0.4064E+02
   6.030  0.4954E+01  0.4069E+02
   6.040  0.4909E+01  0.4074E+02
   6.050  0.4605E+01  0.4079E+02
   6.060  0.4460E+01  0.4083E+02
   6.070  0.4646E+01  0.4088E+02
   6.080  0.5319E+01  0.4093E+02
   6.090  0.6043E+01  0.4098E+02
   6.100  0.7312E+01  0.4105E+02
   6.110  0.7763E+01  0.4113E+02
   6.120  0.8124E+01  0.4121E+02
   6.130  0.8471E+01  0.4129E+02
   6.140  0.8850E+01  0.4137E+02
   6.150  0.9201E+01  0.4147E+02
   6.160  0.9490E+01  0.4156E+02
   6.170  0.9537E+01  0.4165E+02
   6.180  0.9563E+01  0.4175E+02
   6.190  0.9518E+01  0.4184E+02
   6.200  0.9439E+01  0.4194E+02
   6.210  0.9388E+01  0.4203E+02
   6.220  0.9393E+01  0.4213E+02
   6.230  0.9761E+01  0.4222E+02
   6.240  0.1014E+02  0.4232E+02
   6.250  0.9875E+01  0.4242E+02
   6.260  0.9328E+01  0.4252E+02
   6.270  0.9134E+01  0.4261E+02
   6.280  0.8901E+01  0.4270E+02
   6.290  0.8802E+01  0.4279E+02
   6.300  0.8426E+01  0.4288E+02
   6.310  0.7856E+01  0.4296E+02
   6.320  0.6585E+01  0.4303E+02
   6.330  0.6252E+01  0.4310E+02
   6.340  0.6047E+01  0.4316E+02
   6.350  0.5392E+01  0.4321E+02
   6.360  0.4336E+01  0.4326E+02
   6.370  0.3981E+01  0.4330E+02
   6.380  0.3739E+01  0.4334E+02
   6.390  0.3603E+01  0.4338E+02
   6.400  0.3698E+01  0.4342E+02
   6.410  0.3871E+01  0.4345E+02
   6.420  0.4434E+01  0.4349E+02
   6.430  0.5130E+01  0.4354E+02
   6.440  0.6519E+01  0.4360E+02
   6.450  0.7170E+01  0.4367E+02
   6.460  0.7902E+01  0.4374E+02
   6.470  0.7804E+01  0.4382E+02
   6.480  0.7902E+01  0.4390E+02
   6.490  0.8153E+01  0.4398E+02
   6.500  0.8797E+01  0.4406E+02
   6.510  0.7524E+01  0.4415E+02
   6.520  0.7058E+01  0.4422E+02
   6.530  0.6609E+01  0.4429E+02
   6.540  0.6438E+01  0.4435E+02
   6.550  0.6233E+01  0.4441E+02
   6.560  0.5946E+01  0.4448E+02
   6.570  0.5613E+01  0.4453E+02
   6.580  0.5014E+01  0.4459E+02
   6.590  0.4584E+01  0.4463E+02
   6.600  0.4214E+01  0.4468E+02
   6.610  0.3888E+01  0.4472E+02
   6.620  0.3604E+01  0.4476E+02
   6.630  0.3345E+01  0.4479E+02
   6.640  0.3119E+01  0.4482E+02
   6.650  0.2950E+01  0.4485E+02
   6.660  0.2830E+01  0.4488E+02
   6.670  0.2728E+01  0.4491E+02
   6.680  0.2600E+01  0.4494E+02
   6.690  0.2475E+01  0.4496E+02
   6.700  0.2359E+01  0.4499E+02
   6.710  0.2250E+01  0.4501E+02
   6.720  0.2165E+01  0.4503E+02
   6.730  0.2103E+01  0.4505E+02
   6.740  0.2064E+01  0.4507E+02
   6.750  0.2048E+01  0.4509E+02
   6.760  0.2049E+01  0.4511E+02
   6.770  0.2049E+01  0.4514E+02
   6.780  0.2033E+01  0.4516E+02
   6.790  0.2020E+01  0.4518E+02
   6.800  0.2011E+01  0.4520E+02
   6.810  0.2005E+01  0.4522E+02
   6.820  0.2005E+01  0.4524E+02
   6.830  0.2010E+01  0.4526E+02
   6.840  0.2030E+01  0.4528E+02
   6.850  0.2060E+01  0.4530E+02
   6.860  0.2101E+01  0.4532E+02
   6.870  0.2149E+01  0.4534E+02
   6.880  0.2206E+01  0.4536E+02
   6.890  0.2276E+01  0.4538E+02
   6.900  0.2314E+01  0.4541E+02
   6.910  0.2370E+01  0.4543E+02
   6.920  0.2425E+01  0.4545E+02
   6.930  0.2482E+01  0.4548E+02
   6.940  0.2540E+01  0.4550E+02
   6.950  0.2601E+01  0.4553E+02
   6.960  0.2672E+01  0.4556E+02
   6.970  0.2760E+01  0.4558E+02
   6.980  0.2869E+01  0.4561E+02
   6.990  0.2941E+01  0.4564E+02
   7.000  0.3027E+01  0.4567E+02
   7.010  0.3118E+01  0.4570E+02
   7.020  0.3245E+01  0.4573E+02
   7.030  0.3381E+01  0.4577E+02
   7.040  0.3522E+01  0.4580E+02
   7.050  0.3683E+01  0.4584E+02
   7.060  0.3863E+01  0.4587E+02
   7.070  0.4061E+01  0.4591E+02
   7.080  0.4269E+01  0.4595E+02
   7.090  0.4483E+01  0.4600E+02
   7.100  0.4682E+01  0.4604E+02
   7.110  0.4751E+01  0.4609E+02
   7.120  0.4808E+01  0.4614E+02
   7.130  0.4878E+01  0.4619E+02
   7.140  0.4980E+01  0.4624E+02
   7.150  0.5094E+01  0.4629E+02
   7.160  0.5204E+01  0.4634E+02
   7.170  0.5317E+01  0.4639E+02
   7.180  0.5418E+01  0.4645E+02
   7.190  0.5528E+01  0.4650E+02
   7.200  0.5606E+01  0.4656E+02
   7.210  0.5589E+01  0.4661E+02
   7.220  0.5545E+01  0.4667E+02
   7.230  0.5541E+01  0.4672E+02
   7.240  0.5559E+01  0.4678E+02
   7.250  0.5601E+01  0.4683E+02
   7.260  0.5677E+01  0.4689E+02
   7.270  0.5761E+01  0.4695E+02
   7.280  0.5775E+01  0.4701E+02
   7.290  0.5811E+01  0.4706E+02
   7.300  0.5941E+01  0.4712E+02
   7.310  0.6096E+01  0.4718E+02
   7.320  0.6243E+01  0.4724E+02
   7.330  0.6386E+01  0.4731E+02
   7.340  0.6530E+01  0.4737E+02
   7.350  0.6651E+01  0.4744E+02
   7.360  0.6788E+01  0.4750E+02
   7.370  0.6956E+01  0.4757E+02
   7.380  0.7124E+01  0.4764E+02
   7.390  0.7407E+01  0.4772E+02
   7.400  0.7475E+01  0.4779E+02
   7.410  0.7492E+01  0.4787E+02
   7.420  0.7472E+01  0.4794E+02
   7.430  0.7374E+01  0.4802E+02
   7.440  0.7261E+01  0.4809E+02
   7.450  0.6992E+01  0.4816E+02
   7.460  0.7040E+01  0.4823E+02
   7.470  0.7063E+01  0.4830E+02
   7.480  0.7108E+01  0.4837E+02
   7.490  0.7193E+01  0.4844E+02
   7.500  0.7316E+01  0.4851E+02
   7.510  0.7365E+01  0.4859E+02
   7.520  0.7480E+01  0.4866E+02
   7.530  0.7010E+01  0.4873E+02
   7.540  0.7502E+01  0.4881E+02
   7.550  0.7146E+01  0.4888E+02
   7.560  0.6908E+01  0.4895E+02
   7.570  0.6625E+01  0.4902E+02
   7.580  0.6297E+01  0.4908E+02
   7.590  0.5967E+01  0.4915E+02
   7.600  0.5741E+01  0.4920E+02
   7.610  0.5541E+01  0.4926E+02
   7.620  0.5400E+01  0.4932E+02
   7.630  0.5304E+01  0.4937E+02
   7.640  0.5065E+01  0.4942E+02
   7.650  0.4946E+01  0.4947E+02
   7.660  0.4805E+01  0.4952E+02
   7.670  0.4666E+01  0.4957E+02
   7.680  0.4548E+01  0.4961E+02
   7.690  0.4491E+01  0.4966E+02
   7.700  0.4928E+01  0.4971E+02
   7.710  0.4735E+01  0.4975E+02
   7.720  0.4721E+01  0.4980E+02
   7.730  0.4663E+01  0.4985E+02
   7.740  0.4460E+01  0.4989E+02
   7.750  0.4473E+01  0.4994E+02
   7.760  0.4702E+01  0.4998E+02
   7.770  0.5027E+01  0.5003E+02
   7.780  0.5047E+01  0.5008E+02
   7.790  0.4738E+01  0.5013E+02
   7.800  0.4407E+01  0.5018E+02
   7.810  0.4320E+01  0.5022E+02
   7.820  0.4224E+01  0.5026E+02
   7.830  0.4122E+01  0.5031E+02
   7.840  0.4068E+01  0.5035E+02
   7.850  0.4074E+01  0.5039E+02
   7.860  0.4314E+01  0.5043E+02
   7.870  0.4526E+01  0.5047E+02
   7.880  0.4937E+01  0.5052E+02
   7.890  0.5777E+01  0.5057E+02
   7.900  0.6699E+01  0.5064E+02
   7.910  0.5356E+01  0.5070E+02
   7.920  0.4292E+01  0.5075E+02
   7.930  0.4116E+01  0.5079E+02
   7.940  0.3535E+01  0.5083E+02
   7.950  0.3107E+01  0.5086E+02
   7.960  0.3075E+01  0.5089E+02
   7.970  0.3149E+01  0.5092E+02
   7.980  0.3339E+01  0.5095E+02
   7.990  0.3369E+01  0.5099E+02
   8.000  0.3370E+01  0.5102E+02
   8.010  0.3493E+01  0.5106E+02
   8.020  0.3755E+01  0.5109E+02
   8.030  0.5040E+01  0.5114E+02
   8.040  0.5532E+01  0.5119E+02
   8.050  0.5702E+01  0.5125E+02
   8.060  0.6714E+01  0.5131E+02
   8.070  0.6042E+01  0.5137E+02
   8.080  0.5344E+01  0.5143E+02
   8.090  0.5515E+01  0.5149E+02
   8.100  0.4388E+01  0.5154E+02
   8.110  0.4159E+01  0.5158E+02
   8.120  0.4055E+01  0.5162E+02
   8.130  0.3982E+01  0.5166E+02
   8.140  0.3918E+01  0.5170E+02
   8.150  0.3842E+01  0.5174E+02
   8.160  0.3939E+01  0.5178E+02
   8.170  0.4267E+01  0.5182E+02
   8.180  0.4671E+01  0.5186E+02
   8.190  0.5094E+01  0.5191E+02
   8.200  0.5569E+01  0.5196E+02
   8.210  0.6027E+01  0.5202E+02
   8.220  0.6477E+01  0.5208E+02
   8.230  0.6676E+01  0.5215E+02
   8.240  0.6832E+01  0.5222E+02
   8.250  0.6723E+01  0.5229E+02
   8.260  0.6921E+01  0.5235E+02
   8.270  0.7281E+01  0.5242E+02
   8.280  0.7612E+01  0.5250E+02
   8.290  0.7682E+01  0.5258E+02
   8.300  0.8112E+01  0.5266E+02
   8.310  0.8414E+01  0.5274E+02
   8.320  0.8741E+01  0.5282E+02
   8.330  0.9022E+01  0.5291E+02
   8.340  0.9584E+01  0.5301E+02
   8.350  0.1002E+02  0.5310E+02
   8.360  0.1005E+02  0.5321E+02
   8.370  0.9361E+01  0.5330E+02
   8.380  0.9134E+01  0.5339E+02
   8.390  0.9548E+01  0.5349E+02
   8.400  0.9640E+01  0.5358E+02
   8.410  0.1011E+02  0.5368E+02
   8.420  0.1015E+02  0.5378E+02
   8.430  0.9376E+01  0.5388E+02
   8.440  0.8644E+01  0.5397E+02
   8.450  0.7390E+01  0.5405E+02
   8.460  0.6654E+01  0.5412E+02
   8.470  0.6489E+01  0.5419E+02
   8.480  0.6373E+01  0.5425E+02
   8.490  0.6466E+01  0.5432E+02
   8.500  0.6445E+01  0.5438E+02
   8.510  0.5977E+01  0.5444E+02
   8.520  0.5598E+01  0.5450E+02
   8.530  0.5383E+01  0.5456E+02
   8.540  0.5206E+01  0.5461E+02
   8.550  0.5064E+01  0.5466E+02
   8.560  0.4948E+01  0.5471E+02
   8.570  0.4853E+01  0.5476E+02
   8.580  0.4771E+01  0.5481E+02
   8.590  0.4710E+01  0.5485E+02
   8.600  0.4641E+01  0.5490E+02
   8.610  0.4566E+01  0.5495E+02
   8.620  0.4525E+01  0.5499E+02
   8.630  0.4491E+01  0.5504E+02
   8.640  0.4431E+01  0.5508E+02
   8.650  0.4340E+01  0.5513E+02
   8.660  0.4213E+01  0.5517E+02
   8.670  0.4065E+01  0.5521E+02
   8.680  0.3927E+01  0.5525E+02
   8.690  0.3801E+01  0.5529E+02
   8.700  0.3698E+01  0.5533E+02
   8.710  0.3635E+01  0.5536E+02
   8.720  0.3582E+01  0.5540E+02
   8.730  0.3529E+01  0.5543E+02
   8.740  0.3480E+01  0.5547E+02
   8.750  0.3444E+01  0.5550E+02
   8.760  0.3419E+01  0.5554E+02
   8.770  0.3414E+01  0.5557E+02
   8.780  0.3429E+01  0.5561E+02
   8.790  0.3457E+01  0.5564E+02
   8.800  0.3490E+01  0.5568E+02
   8.810  0.3522E+01  0.5571E+02
   8.820  0.3553E+01  0.5575E+02
   8.830  0.3578E+01  0.5578E+02
   8.840  0.3591E+01  0.5582E+02
   8.850  0.3648E+01  0.5585E+02
   8.860  0.3648E+01  0.5589E+02
   8.870  0.3639E+01  0.5593E+02
   8.880  0.3621E+01  0.5596E+02
   8.890  0.3623E+01  0.5600E+02
   8.900  0.3805E+01  0.5604E+02
   8.910  0.3993E+01  0.5608E+02
   8.920  0.3957E+01  0.5612E+02
   8.930  0.3836E+01  0.5615E+02
   8.940  0.3824E+01  0.5619E+02
   8.950  0.3835E+01  0.5623E+02
   8.960  0.3828E+01  0.5627E+02
   8.970  0.3792E+01  0.5631E+02
   8.980  0.3785E+01  0.5635E+02
   8.990  0.3848E+01  0.5638E+02
   9.000  0.3888E+01  0.5642E+02
   9.010  0.3918E+01  0.5646E+02
   9.020  0.4004E+01  0.5650E+02
   9.030  0.4142E+01  0.5654E+02
   9.040  0.4281E+01  0.5658E+02
   9.050  0.4483E+01  0.5663E+02
   9.060  0.4648E+01  0.5667E+02
   9.070  0.4741E+01  0.5672E+02
   9.080  0.4788E+01  0.5677E+02
   9.090  0.4829E+01  0.5682E+02
   9.100  0.4752E+01  0.5686E+02
   9.110  0.4678E+01  0.5691E+02
   9.120  0.4611E+01  0.5696E+02
   9.130  0.4542E+01  0.5700E+02
   9.140  0.4497E+01  0.5705E+02
   9.150  0.4462E+01  0.5709E+02
   9.160  0.4420E+01  0.5714E+02
   9.170  0.4383E+01  0.5718E+02
   9.180  0.4292E+01  0.5723E+02
   9.190  0.4228E+01  0.5727E+02
   9.200  0.4104E+01  0.5731E+02
   9.210  0.3862E+01  0.5735E+02
   9.220  0.3737E+01  0.5739E+02
   9.230  0.3687E+01  0.5742E+02
   9.240  0.3682E+01  0.5746E+02
   9.250  0.3888E+01  0.5750E+02
   9.260  0.4514E+01  0.5754E+02
   9.270  0.4707E+01  0.5759E+02
   9.280  0.3721E+01  0.5763E+02
   9.290  0.3287E+01  0.5767E+02
   9.300  0.2862E+01  0.5770E+02
   9.310  0.2445E+01  0.5772E+02
   9.320  0.2076E+01  0.5775E+02
   9.330  0.1883E+01  0.5776E+02
   9.340  0.1769E+01  0.5778E+02
   9.350  0.1804E+01  0.5780E+02
   9.360  0.2050E+01  0.5782E+02
   9.370  0.2416E+01  0.5784E+02
   9.380  0.2933E+01  0.5787E+02
   9.390  0.3740E+01  0.5790E+02
   9.400  0.4272E+01  0.5794E+02
   9.410  0.4682E+01  0.5799E+02
   9.420  0.4172E+01  0.5803E+02
   9.430  0.4058E+01  0.5807E+02
   9.440  0.4124E+01  0.5811E+02
   9.450  0.4218E+01  0.5815E+02
   9.460  0.4271E+01  0.5820E+02
   9.470  0.4302E+01  0.5824E+02
   9.480  0.4192E+01  0.5828E+02
   9.490  0.4042E+01  0.5832E+02
   9.500  0.3950E+01  0.5836E+02
   9.510  0.3928E+01  0.5840E+02
   9.520  0.4020E+01  0.5844E+02
   9.530  0.4092E+01  0.5848E+02
   9.540  0.3998E+01  0.5852E+02
   9.550  0.3934E+01  0.5856E+02
   9.560  0.3859E+01  0.5860E+02
   9.570  0.3774E+01  0.5864E+02
   9.580  0.3692E+01  0.5868E+02
   9.590  0.3654E+01  0.5871E+02
   9.600  0.3647E+01  0.5875E+02
   9.610  0.3607E+01  0.5879E+02
   9.620  0.3530E+01  0.5882E+02
   9.630  0.3471E+01  0.5886E+02
   9.640  0.3457E+01  0.5889E+02
   9.650  0.3483E+01  0.5893E+02
   9.660  0.3458E+01  0.5896E+02
   9.670  0.3416E+01  0.5900E+02
   9.680  0.3398E+01  0.5903E+02
   9.690  0.3430E+01  0.5906E+02
   9.700  0.3477E+01  0.5910E+02
   9.710  0.3534E+01  0.5913E+02
   9.720  0.3604E+01  0.5917E+02
   9.730  0.4241E+01  0.5921E+02
   9.740  0.4705E+01  0.5925E+02
   9.750  0.5691E+01  0.5930E+02
   9.760  0.6523E+01  0.5937E+02
   9.770  0.5406E+01  0.5942E+02
   9.780  0.5356E+01  0.5948E+02
   9.790  0.5816E+01  0.5953E+02
   9.800  0.5322E+01  0.5959E+02
   9.810  0.3800E+01  0.5963E+02
   9.820  0.3519E+01  0.5967E+02
   9.830  0.3352E+01  0.5971E+02
   9.840  0.3163E+01  0.5974E+02
   9.850  0.3012E+01  0.5977E+02
   9.860  0.2869E+01  0.5980E+02
   9.870  0.2618E+01  0.5983E+02
   9.880  0.2428E+01  0.5985E+02
   9.890  0.2294E+01  0.5987E+02
   9.900  0.2171E+01  0.5990E+02
   9.910  0.2058E+01  0.5992E+02
   9.920  0.1964E+01  0.5994E+02
   9.930  0.1900E+01  0.5996E+02
   9.940  0.1867E+01  0.5998E+02
   9.950  0.1844E+01  0.5999E+02
   9.960  0.1828E+01  0.6001E+02
   9.970  0.1815E+01  0.6003E+02
   9.980  0.1807E+01  0.6005E+02
   9.990  0.1802E+01  0.6007E+02
  10.000  0.1801E+01  0.6009E+02
  10.010  0.1805E+01  0.6010E+02
  10.020  0.1819E+01  0.6012E+02
  10.030  0.1861E+01  0.6014E+02
  10.040  0.1835E+01  0.6016E+02
  10.050  0.1869E+01  0.6018E+02
  10.060  0.2053E+01  0.6020E+02
  10.070  0.2459E+01  0.6022E+02
  10.080  0.2701E+01  0.6024E+02
  10.090  0.2974E+01  0.6027E+02
  10.100  0.3243E+01  0.6030E+02
  10.110  0.3510E+01  0.6034E+02
  10.120  0.3859E+01  0.6037E+02
  10.130  0.4291E+01  0.6042E+02
  10.140  0.4159E+01  0.6046E+02
  10.150  0.4258E+01  0.6050E+02
  10.160  0.4305E+01  0.6054E+02
  10.170  0.4322E+01  0.6059E+02
  10.180  0.4435E+01  0.6063E+02
  10.190  0.4588E+01  0.6067E+02
  10.200  0.4819E+01  0.6072E+02
  10.210  0.5236E+01  0.6077E+02
  10.220  0.5659E+01  0.6083E+02
  10.230  0.6067E+01  0.6088E+02
  10.240  0.6310E+01  0.6095E+02
  10.250  0.5983E+01  0.6101E+02
  10.260  0.5529E+01  0.6107E+02
  10.270  0.5299E+01  0.6112E+02
  10.280  0.5181E+01  0.6117E+02
  10.290  0.4950E+01  0.6122E+02
  10.300  0.4637E+01  0.6127E+02
  10.310  0.4422E+01  0.6132E+02
  10.320  0.4294E+01  0.6136E+02
  10.330  0.4225E+01  0.6140E+02
  10.340  0.4193E+01  0.6145E+02
  10.350  0.4379E+01  0.6149E+02
  10.360  0.3996E+01  0.6153E+02
  10.370  0.3678E+01  0.6157E+02
  10.380  0.3472E+01  0.6161E+02
  10.390  0.3307E+01  0.6164E+02
  10.400  0.3160E+01  0.6167E+02
  10.410  0.3088E+01  0.6170E+02
  10.420  0.2867E+01  0.6173E+02
  10.430  0.2595E+01  0.6176E+02
  10.440  0.2271E+01  0.6178E+02
  10.450  0.2119E+01  0.6181E+02
  10.460  0.2029E+01  0.6183E+02
  10.470  0.1959E+01  0.6185E+02
  10.480  0.1957E+01  0.6187E+02
  10.490  0.2117E+01  0.6189E+02
  10.500  0.1681E+01  0.6191E+02
  10.510  0.1672E+01  0.6192E+02
  10.520  0.1670E+01  0.6194E+02
  10.530  0.1668E+01  0.6196E+02
  10.540  0.1668E+01  0.6197E+02
  10.550  0.1789E+01  0.6199E+02
  10.560  0.1919E+01  0.6201E+02
  10.570  0.2065E+01  0.6203E+02
  10.580  0.2224E+01  0.6205E+02
  10.590  0.2402E+01  0.6207E+02
  10.600  0.2601E+01  0.6210E+02
  10.610  0.2799E+01  0.6212E+02
  10.620  0.2968E+01  0.6215E+02
  10.630  0.3115E+01  0.6218E+02
  10.640  0.3229E+01  0.6222E+02
  10.650  0.3347E+01  0.6225E+02
  10.660  0.3485E+01  0.6228E+02
  10.670  0.3626E+01  0.6232E+02
  10.680  0.3757E+01  0.6236E+02
  10.690  0.3875E+01  0.6239E+02
  10.700  0.3999E+01  0.6243E+02
  10.710  0.4094E+01  0.6247E+02
  10.720  0.4166E+01  0.6251E+02
  10.730  0.4259E+01  0.6256E+02
  10.740  0.4389E+01  0.6260E+02
  10.750  0.4634E+01  0.6264E+02
  10.760  0.4791E+01  0.6269E+02
  10.770  0.4948E+01  0.6274E+02
  10.780  0.4934E+01  0.6279E+02
  10.790  0.5098E+01  0.6284E+02
  10.800  0.5265E+01  0.6289E+02
  10.810  0.5334E+01  0.6294E+02
  10.820  0.5500E+01  0.6300E+02
  10.830  0.5593E+01  0.6305E+02
  10.840  0.5718E+01  0.6311E+02
  10.850  0.5903E+01  0.6317E+02
  10.860  0.6007E+01  0.6323E+02
  10.870  0.6192E+01  0.6329E+02
  10.880  0.6555E+01  0.6335E+02
  10.890  0.8576E+01  0.6343E+02
  10.900  0.9266E+01  0.6352E+02
  10.910  0.9249E+01  0.6361E+02
  10.920  0.1005E+02  0.6371E+02
  10.930  0.9988E+01  0.6381E+02
  10.940  0.9843E+01  0.6391E+02
  10.950  0.9559E+01  0.6400E+02
  10.960  0.9584E+01  0.6410E+02
  10.970  0.9716E+01  0.6420E+02
  10.980  0.9829E+01  0.6429E+02
  10.990  0.9897E+01  0.6439E+02
  11.000  0.1001E+02  0.6449E+02
  11.010  0.1021E+02  0.6459E+02
  11.020  0.9730E+01  0.6469E+02
  11.030  0.9830E+01  0.6479E+02
  11.040  0.1026E+02  0.6489E+02
  11.050  0.1040E+02  0.6499E+02
  11.060  0.1022E+02  0.6510E+02
  11.070  0.1015E+02  0.6520E+02
  11.080  0.1010E+02  0.6530E+02
  11.090  0.9945E+01  0.6540E+02
  11.100  0.1001E+02  0.6550E+02
  11.110  0.9859E+01  0.6560E+02
  11.120  0.9554E+01  0.6570E+02
  11.130  0.9374E+01  0.6579E+02
  11.140  0.9436E+01  0.6589E+02
  11.150  0.9607E+01  0.6598E+02
  11.160  0.9773E+01  0.6608E+02
  11.170  0.1002E+02  0.6618E+02
  11.180  0.1049E+02  0.6628E+02
  11.190  0.1175E+02  0.6639E+02
  11.200  0.1119E+02  0.6650E+02
  11.210  0.1075E+02  0.6661E+02
  11.220  0.1011E+02  0.6672E+02
  11.230  0.9709E+01  0.6682E+02
  11.240  0.9372E+01  0.6691E+02
  11.250  0.9293E+01  0.6700E+02
  11.260  0.9141E+01  0.6710E+02
  11.270  0.9058E+01  0.6719E+02
  11.280  0.9404E+01  0.6728E+02
  11.290  0.8917E+01  0.6737E+02
  11.300  0.8832E+01  0.6746E+02
  11.310  0.8671E+01  0.6755E+02
  11.320  0.8565E+01  0.6763E+02
  11.330  0.8581E+01  0.6772E+02
  11.340  0.8418E+01  0.6780E+02
  11.350  0.8262E+01  0.6789E+02
  11.360  0.8433E+01  0.6797E+02
  11.370  0.9463E+01  0.6806E+02
  11.380  0.8473E+01  0.6814E+02
  11.390  0.8362E+01  0.6823E+02
  11.400  0.8282E+01  0.6831E+02
  11.410  0.8195E+01  0.6839E+02
  11.420  0.8123E+01  0.6848E+02
  11.430  0.8065E+01  0.6856E+02
  11.440  0.7986E+01  0.6864E+02
  11.450  0.7918E+01  0.6872E+02
  11.460  0.7841E+01  0.6880E+02
  11.470  0.7876E+01  0.6887E+02
  11.480  0.7826E+01  0.6895E+02
  11.490  0.8603E+01  0.6903E+02
  11.500  0.7426E+01  0.6912E+02
  11.510  0.6905E+01  0.6919E+02
  11.520  0.6637E+01  0.6926E+02
  11.530  0.6394E+01  0.6932E+02
  11.540  0.6367E+01  0.6939E+02
  11.550  0.6694E+01  0.6945E+02
  11.560  0.7749E+01  0.6952E+02
  11.570  0.8355E+01  0.6960E+02
  11.580  0.8545E+01  0.6969E+02
  11.590  0.8790E+01  0.6977E+02
  11.600  0.9006E+01  0.6986E+02
  11.610  0.9129E+01  0.6995E+02
  11.620  0.9142E+01  0.7005E+02
  11.630  0.9085E+01  0.7014E+02
  11.640  0.8555E+01  0.7023E+02
  11.650  0.8218E+01  0.7031E+02
  11.660  0.8097E+01  0.7039E+02
  11.670  0.8151E+01  0.7047E+02
  11.680  0.8241E+01  0.7055E+02
  11.690  0.8449E+01  0.7064E+02
  11.700  0.8530E+01  0.7072E+02
  11.710  0.8834E+01  0.7081E+02
  11.720  0.9009E+01  0.7090E+02
  11.730  0.9455E+01  0.7099E+02
  11.740  0.9751E+01  0.7109E+02
  11.750  0.9529E+01  0.7118E+02
  11.760  0.9526E+01  0.7128E+02
  11.770  0.9176E+01  0.7137E+02
  11.780  0.8385E+01  0.7146E+02
  11.790  0.7993E+01  0.7154E+02
  11.800  0.7830E+01  0.7162E+02
  11.810  0.7709E+01  0.7170E+02
  11.820  0.7537E+01  0.7177E+02
  11.830  0.7538E+01  0.7185E+02
  11.840  0.7521E+01  0.7193E+02
  11.850  0.7266E+01  0.7200E+02
  11.860  0.7244E+01  0.7207E+02
  11.870  0.7304E+01  0.7214E+02
  11.880  0.7411E+01  0.7222E+02
  11.890  0.7680E+01  0.7229E+02
  11.900  0.8069E+01  0.7237E+02
  11.910  0.8254E+01  0.7245E+02
  11.920  0.8470E+01  0.7254E+02
  11.930  0.8800E+01  0.7262E+02
  11.940  0.9398E+01  0.7271E+02
  11.950  0.9622E+01  0.7281E+02
  11.960  0.9661E+01  0.7291E+02
  11.970  0.9641E+01  0.7300E+02
  11.980  0.9360E+01  0.7310E+02
  11.990  0.9155E+01  0.7319E+02
  12.000  0.8900E+01  0.7328E+02
  12.010  0.8781E+01  0.7337E+02
  12.020  0.8952E+01  0.7346E+02
  12.030  0.9669E+01  0.7355E+02
  12.040  0.1016E+02  0.7365E+02
  12.050  0.1048E+02  0.7375E+02
  12.060  0.1085E+02  0.7386E+02
  12.070  0.1008E+02  0.7397E+02
  12.080  0.9395E+01  0.7407E+02
  12.090  0.8970E+01  0.7416E+02
  12.100  0.8899E+01  0.7425E+02
  12.110  0.7910E+01  0.7433E+02
  12.120  0.6789E+01  0.7440E+02
  12.130  0.6172E+01  0.7447E+02
  12.140  0.5857E+01  0.7453E+02
  12.150  0.5710E+01  0.7459E+02
  12.160  0.5923E+01  0.7464E+02
  12.170  0.6160E+01  0.7470E+02
  12.180  0.6443E+01  0.7477E+02
  12.190  0.6793E+01  0.7483E+02
  12.200  0.7369E+01  0.7490E+02
  12.210  0.7865E+01  0.7498E+02
  12.220  0.8544E+01  0.7506E+02
  12.230  0.8643E+01  0.7515E+02
  12.240  0.8422E+01  0.7524E+02
  12.250  0.8194E+01  0.7532E+02
  12.260  0.8088E+01  0.7540E+02
  12.270  0.7821E+01  0.7548E+02
  12.280  0.7703E+01  0.7556E+02
  12.290  0.7689E+01  0.7563E+02
  12.300  0.7959E+01  0.7571E+02
  12.310  0.8025E+01  0.7579E+02
  12.320  0.7247E+01  0.7587E+02
  12.330  0.7019E+01  0.7594E+02
  12.340  0.6845E+01  0.7601E+02
  12.350  0.6694E+01  0.7608E+02
  12.360  0.6615E+01  0.7614E+02
  12.370  0.6604E+01  0.7621E+02
  12.380  0.6648E+01  0.7628E+02
  12.390  0.6683E+01  0.7634E+02
  12.400  0.6824E+01  0.7641E+02
  12.410  0.7026E+01  0.7648E+02
  12.420  0.7156E+01  0.7655E+02
  12.430  0.7662E+01  0.7662E+02
  12.440  0.8312E+01  0.7670E+02
  12.450  0.8023E+01  0.7679E+02
  12.460  0.7947E+01  0.7687E+02
  12.470  0.7863E+01  0.7695E+02
  12.480  0.7757E+01  0.7703E+02
  12.490  0.7656E+01  0.7710E+02
  12.500  0.7524E+01  0.7718E+02
  12.510  0.7411E+01  0.7725E+02
  12.520  0.7278E+01  0.7733E+02
  12.530  0.7120E+01  0.7740E+02
  12.540  0.6960E+01  0.7747E+02
  12.550  0.6911E+01  0.7754E+02
  12.560  0.6534E+01  0.7761E+02
  12.570  0.6510E+01  0.7767E+02
  12.580  0.6446E+01  0.7774E+02
  12.590  0.6085E+01  0.7780E+02
  12.600  0.5910E+01  0.7786E+02
  12.610  0.5848E+01  0.7792E+02
  12.620  0.5832E+01  0.7798E+02
  12.630  0.6957E+01  0.7804E+02
  12.640  0.6316E+01  0.7811E+02
  12.650  0.5955E+01  0.7817E+02
  12.660  0.5680E+01  0.7822E+02
  12.670  0.5417E+01  0.7828E+02
  12.680  0.5235E+01  0.7833E+02
  12.690  0.5095E+01  0.7838E+02
  12.700  0.6288E+01  0.7844E+02
  12.710  0.4544E+01  0.7848E+02
  12.720  0.4272E+01  0.7853E+02
  12.730  0.4137E+01  0.7857E+02
  12.740  0.4011E+01  0.7861E+02
  12.750  0.3892E+01  0.7865E+02
  12.760  0.3765E+01  0.7869E+02
  12.770  0.3650E+01  0.7872E+02
  12.780  0.3553E+01  0.7876E+02
  12.790  0.3562E+01  0.7880E+02
  12.800  0.3532E+01  0.7883E+02
  12.810  0.3496E+01  0.7887E+02
  12.820  0.3459E+01  0.7890E+02
  12.830  0.3418E+01  0.7894E+02
  12.840  0.3410E+01  0.7897E+02
  12.850  0.3424E+01  0.7900E+02
  12.860  0.3440E+01  0.7904E+02
  12.870  0.3466E+01  0.7907E+02
  12.880  0.3493E+01  0.7911E+02
  12.890  0.3520E+01  0.7914E+02
  12.900  0.3557E+01  0.7918E+02
  12.910  0.3622E+01  0.7921E+02
  12.920  0.3705E+01  0.7925E+02
  12.930  0.3802E+01  0.7929E+02
  12.940  0.3992E+01  0.7933E+02
  12.950  0.4144E+01  0.7937E+02
  12.960  0.3925E+01  0.7941E+02
  12.970  0.3448E+01  0.7945E+02
  12.980  0.3220E+01  0.7948E+02
  12.990  0.3040E+01  0.7951E+02
  13.000  0.2876E+01  0.7954E+02
  13.010  0.2769E+01  0.7957E+02
  13.020  0.2654E+01  0.7960E+02
  13.030  0.2453E+01  0.7962E+02
  13.040  0.2309E+01  0.7965E+02
  13.050  0.2156E+01  0.7967E+02
  13.060  0.2011E+01  0.7969E+02
  13.070  0.1882E+01  0.7971E+02
  13.080  0.1791E+01  0.7973E+02
  13.090  0.1651E+01  0.7974E+02
  13.100  0.1493E+01  0.7976E+02
  13.110  0.1409E+01  0.7977E+02
  13.120  0.1333E+01  0.7979E+02
  13.130  0.1260E+01  0.7980E+02
  13.140  0.1189E+01  0.7981E+02
  13.150  0.1123E+01  0.7982E+02
  13.160  0.1059E+01  0.7983E+02
  13.170  0.9973E+00  0.7985E+02
  13.180  0.9388E+00  0.7985E+02
  13.190  0.8831E+00  0.7986E+02
  13.200  0.8306E+00  0.7987E+02
  13.210  0.7814E+00  0.7988E+02
  13.220  0.7386E+00  0.7989E+02
  13.230  0.7053E+00  0.7990E+02
  13.240  0.6763E+00  0.7990E+02
  13.250  0.6488E+00  0.7991E+02
  13.260  0.6223E+00  0.7992E+02
  13.270  0.5965E+00  0.7992E+02
  13.280  0.5714E+00  0.7993E+02
  13.290  0.5470E+00  0.7993E+02
  13.300  0.5234E+00  0.7994E+02
  13.310  0.5005E+00  0.7994E+02
  13.320  0.4784E+00  0.7995E+02
  13.330  0.4571E+00  0.7995E+02
  13.340  0.4365E+00  0.7996E+02
  13.350  0.4169E+00  0.7996E+02
  13.360  0.4030E+00  0.7997E+02
  13.370  0.4223E+00  0.7997E+02
  13.380  0.4447E+00  0.7997E+02
  13.390  0.4224E+00  0.7998E+02
  13.400  0.3357E+00  0.7998E+02
  13.410  0.2605E+00  0.7999E+02
  13.420  0.2137E+00  0.7999E+02
  13.430  0.1860E+00  0.7999E+02
  13.440  0.1646E+00  0.7999E+02
  13.450  0.1445E+00  0.7999E+02
  13.460  0.1257E+00  0.7999E+02
  13.470  0.1082E+00  0.8000E+02
  13.480  0.9206E-01  0.8000E+02
  13.490  0.7720E-01  0.8000E+02
  13.500  0.6365E-01  0.8000E+02
  13.510  0.5140E-01  0.8000E+02
  13.520  0.4046E-01  0.8000E+02
  13.530  0.3083E-01  0.8000E+02
  13.540  0.2251E-01  0.8000E+02
  13.550  0.1549E-01  0.8000E+02
  13.560  0.9779E-02  0.8000E+02
  13.570  0.5377E-02  0.8000E+02
  13.580  0.2281E-02  0.8000E+02
  13.590  0.4927E-03  0.8000E+02
