#  E (eV)   dos(E)     Int dos(E) EFermi =    0.517 eV
 -11.680  0.0000E+00  0.0000E+00
 -11.670  0.1882E+00  0.6274E-03
 -11.660  0.7529E+00  0.5019E-02
 -11.650  0.1362E+01  0.1588E-01
 -11.640  0.1626E+01  0.3111E-01
 -11.630  0.1753E+01  0.4791E-01
 -11.620  0.2001E+01  0.6658E-01
 -11.610  0.2325E+01  0.8819E-01
 -11.600  0.2660E+01  0.1131E+00
 -11.590  0.2932E+01  0.1412E+00
 -11.580  0.3141E+01  0.1715E+00
 -11.570  0.3382E+01  0.2041E+00
 -11.560  0.3664E+01  0.2393E+00
 -11.550  0.3954E+01  0.2774E+00
 -11.540  0.4251E+01  0.3184E+00
 -11.530  0.4572E+01  0.3625E+00
 -11.520  0.5128E+01  0.4107E+00
 -11.510  0.5964E+01  0.4660E+00
 -11.500  0.6797E+01  0.5299E+00
 -11.490  0.7490E+01  0.6016E+00
 -11.480  0.7683E+01  0.6779E+00
 -11.470  0.7397E+01  0.7535E+00
 -11.460  0.7224E+01  0.8264E+00
 -11.450  0.7199E+01  0.8985E+00
 -11.440  0.7113E+01  0.9702E+00
 -11.430  0.6969E+01  0.1041E+01
 -11.420  0.6768E+01  0.1109E+01
 -11.410  0.6568E+01  0.1176E+01
 -11.400  0.6425E+01  0.1241E+01
 -11.390  0.6271E+01  0.1304E+01
 -11.380  0.6122E+01  0.1366E+01
 -11.370  0.6019E+01  0.1427E+01
 -11.360  0.5940E+01  0.1487E+01
 -11.350  0.5870E+01  0.1546E+01
 -11.340  0.5745E+01  0.1604E+01
 -11.330  0.5389E+01  0.1660E+01
 -11.320  0.4996E+01  0.1712E+01
 -11.310  0.4569E+01  0.1760E+01
 -11.300  0.4087E+01  0.1803E+01
 -11.290  0.3551E+01  0.1841E+01
 -11.280  0.2953E+01  0.1874E+01
 -11.270  0.2498E+01  0.1901E+01
 -11.260  0.2134E+01  0.1924E+01
 -11.250  0.1832E+01  0.1944E+01
 -11.240  0.1590E+01  0.1961E+01
 -11.230  0.1237E+01  0.1975E+01
 -11.220  0.9282E+00  0.1986E+01
 -11.210  0.6677E+00  0.1994E+01
 -11.200  0.2981E+00  0.1999E+01
 -11.190  0.2115E+02  0.2032E+01
 -11.180  0.4404E+02  0.2571E+01
 -11.170  0.3729E+02  0.2977E+01
 -11.160  0.3545E+02  0.3340E+01
 -11.150  0.2181E+02  0.3579E+01
 -11.140  0.2334E+02  0.3799E+01
 -11.130  0.2067E+02  0.4019E+01
 -11.120  0.1969E+02  0.4220E+01
 -11.110  0.2048E+02  0.4414E+01
 -11.100  0.2049E+02  0.4619E+01
 -11.090  0.1875E+02  0.4811E+01
 -11.080  0.2056E+02  0.5002E+01
 -11.070  0.1966E+02  0.5206E+01
 -11.060  0.1907E+02  0.5400E+01
 -11.050  0.2260E+02  0.5601E+01
 -11.040  0.2373E+02  0.5840E+01
 -11.030  0.6118E+01  0.5995E+01
 -11.020  0.0000E+00  0.6000E+01
 -11.010  0.0000E+00  0.6000E+01
 -11.000  0.0000E+00  0.6000E+01
 -10.990  0.0000E+00  0.6000E+01
 -10.980  0.0000E+00  0.6000E+01
 -10.970  0.0000E+00  0.6000E+01
 -10.960  0.0000E+00  0.6000E+01
 -10.950  0.0000E+00  0.6000E+01
 -10.940  0.0000E+00  0.6000E+01
 -10.930  0.0000E+00  0.6000E+01
 -10.920  0.0000E+00  0.6000E+01
 -10.910  0.0000E+00  0.6000E+01
 -10.900  0.0000E+00  0.6000E+01
 -10.890  0.0000E+00  0.6000E+01
 -10.880  0.0000E+00  0.6000E+01
 -10.870  0.0000E+00  0.6000E+01
 -10.860  0.0000E+00  0.6000E+01
 -10.850  0.0000E+00  0.6000E+01
 -10.840  0.0000E+00  0.6000E+01
 -10.830  0.0000E+00  0.6000E+01
 -10.820  0.0000E+00  0.6000E+01
 -10.810  0.0000E+00  0.6000E+01
 -10.800  0.0000E+00  0.6000E+01
 -10.790  0.0000E+00  0.6000E+01
 -10.780  0.0000E+00  0.6000E+01
 -10.770  0.0000E+00  0.6000E+01
 -10.760  0.0000E+00  0.6000E+01
 -10.750  0.0000E+00  0.6000E+01
 -10.740  0.0000E+00  0.6000E+01
 -10.730  0.0000E+00  0.6000E+01
 -10.720  0.0000E+00  0.6000E+01
 -10.710  0.0000E+00  0.6000E+01
 -10.700  0.0000E+00  0.6000E+01
 -10.690  0.0000E+00  0.6000E+01
 -10.680  0.0000E+00  0.6000E+01
 -10.670  0.0000E+00  0.6000E+01
 -10.660  0.0000E+00  0.6000E+01
 -10.650  0.0000E+00  0.6000E+01
 -10.640  0.0000E+00  0.6000E+01
 -10.630  0.0000E+00  0.6000E+01
 -10.620  0.0000E+00  0.6000E+01
 -10.610  0.0000E+00  0.6000E+01
 -10.600  0.0000E+00  0.6000E+01
 -10.590  0.0000E+00  0.6000E+01
 -10.580  0.0000E+00  0.6000E+01
 -10.570  0.0000E+00  0.6000E+01
 -10.560  0.0000E+00  0.6000E+01
 -10.550  0.0000E+00  0.6000E+01
 -10.540  0.0000E+00  0.6000E+01
 -10.530  0.0000E+00  0.6000E+01
 -10.520  0.0000E+00  0.6000E+01
 -10.510  0.0000E+00  0.6000E+01
 -10.500  0.0000E+00  0.6000E+01
 -10.490  0.0000E+00  0.6000E+01
 -10.480  0.0000E+00  0.6000E+01
 -10.470  0.0000E+00  0.6000E+01
 -10.460  0.0000E+00  0.6000E+01
 -10.450  0.0000E+00  0.6000E+01
 -10.440  0.0000E+00  0.6000E+01
 -10.430  0.0000E+00  0.6000E+01
 -10.420  0.0000E+00  0.6000E+01
 -10.410  0.0000E+00  0.6000E+01
 -10.400  0.0000E+00  0.6000E+01
 -10.390  0.0000E+00  0.6000E+01
 -10.380  0.0000E+00  0.6000E+01
 -10.370  0.0000E+00  0.6000E+01
 -10.360  0.0000E+00  0.6000E+01
 -10.350  0.0000E+00  0.6000E+01
 -10.340  0.0000E+00  0.6000E+01
 -10.330  0.0000E+00  0.6000E+01
 -10.320  0.0000E+00  0.6000E+01
 -10.310  0.0000E+00  0.6000E+01
 -10.300  0.0000E+00  0.6000E+01
 -10.290  0.0000E+00  0.6000E+01
 -10.280  0.0000E+00  0.6000E+01
 -10.270  0.0000E+00  0.6000E+01
 -10.260  0.0000E+00  0.6000E+01
 -10.250  0.0000E+00  0.6000E+01
 -10.240  0.0000E+00  0.6000E+01
 -10.230  0.0000E+00  0.6000E+01
 -10.220  0.0000E+00  0.6000E+01
 -10.210  0.0000E+00  0.6000E+01
 -10.200  0.0000E+00  0.6000E+01
 -10.190  0.0000E+00  0.6000E+01
 -10.180  0.0000E+00  0.6000E+01
 -10.170  0.0000E+00  0.6000E+01
 -10.160  0.0000E+00  0.6000E+01
 -10.150  0.0000E+00  0.6000E+01
 -10.140  0.0000E+00  0.6000E+01
 -10.130  0.0000E+00  0.6000E+01
 -10.120  0.0000E+00  0.6000E+01
 -10.110  0.0000E+00  0.6000E+01
 -10.100  0.0000E+00  0.6000E+01
 -10.090  0.0000E+00  0.6000E+01
 -10.080  0.0000E+00  0.6000E+01
 -10.070  0.0000E+00  0.6000E+01
 -10.060  0.0000E+00  0.6000E+01
 -10.050  0.0000E+00  0.6000E+01
 -10.040  0.0000E+00  0.6000E+01
 -10.030  0.0000E+00  0.6000E+01
 -10.020  0.0000E+00  0.6000E+01
 -10.010  0.0000E+00  0.6000E+01
 -10.000  0.0000E+00  0.6000E+01
  -9.990  0.0000E+00  0.6000E+01
  -9.980  0.0000E+00  0.6000E+01
  -9.970  0.0000E+00  0.6000E+01
  -9.960  0.0000E+00  0.6000E+01
  -9.950  0.0000E+00  0.6000E+01
  -9.940  0.0000E+00  0.6000E+01
  -9.930  0.0000E+00  0.6000E+01
  -9.920  0.0000E+00  0.6000E+01
  -9.910  0.0000E+00  0.6000E+01
  -9.900  0.0000E+00  0.6000E+01
  -9.890  0.0000E+00  0.6000E+01
  -9.880  0.0000E+00  0.6000E+01
  -9.870  0.0000E+00  0.6000E+01
  -9.860  0.0000E+00  0.6000E+01
  -9.850  0.0000E+00  0.6000E+01
  -9.840  0.0000E+00  0.6000E+01
  -9.830  0.0000E+00  0.6000E+01
  -9.820  0.0000E+00  0.6000E+01
  -9.810  0.0000E+00  0.6000E+01
  -9.800  0.0000E+00  0.6000E+01
  -9.790  0.0000E+00  0.6000E+01
  -9.780  0.0000E+00  0.6000E+01
  -9.770  0.0000E+00  0.6000E+01
  -9.760  0.0000E+00  0.6000E+01
  -9.750  0.0000E+00  0.6000E+01
  -9.740  0.0000E+00  0.6000E+01
  -9.730  0.0000E+00  0.6000E+01
  -9.720  0.0000E+00  0.6000E+01
  -9.710  0.0000E+00  0.6000E+01
  -9.700  0.0000E+00  0.6000E+01
  -9.690  0.0000E+00  0.6000E+01
  -9.680  0.0000E+00  0.6000E+01
  -9.670  0.0000E+00  0.6000E+01
  -9.660  0.0000E+00  0.6000E+01
  -9.650  0.0000E+00  0.6000E+01
  -9.640  0.0000E+00  0.6000E+01
  -9.630  0.0000E+00  0.6000E+01
  -9.620  0.0000E+00  0.6000E+01
  -9.610  0.0000E+00  0.6000E+01
  -9.600  0.0000E+00  0.6000E+01
  -9.590  0.0000E+00  0.6000E+01
  -9.580  0.0000E+00  0.6000E+01
  -9.570  0.0000E+00  0.6000E+01
  -9.560  0.0000E+00  0.6000E+01
  -9.550  0.0000E+00  0.6000E+01
  -9.540  0.0000E+00  0.6000E+01
  -9.530  0.0000E+00  0.6000E+01
  -9.520  0.0000E+00  0.6000E+01
  -9.510  0.0000E+00  0.6000E+01
  -9.500  0.0000E+00  0.6000E+01
  -9.490  0.0000E+00  0.6000E+01
  -9.480  0.0000E+00  0.6000E+01
  -9.470  0.0000E+00  0.6000E+01
  -9.460  0.0000E+00  0.6000E+01
  -9.450  0.0000E+00  0.6000E+01
  -9.440  0.0000E+00  0.6000E+01
  -9.430  0.0000E+00  0.6000E+01
  -9.420  0.0000E+00  0.6000E+01
  -9.410  0.0000E+00  0.6000E+01
  -9.400  0.0000E+00  0.6000E+01
  -9.390  0.0000E+00  0.6000E+01
  -9.380  0.0000E+00  0.6000E+01
  -9.370  0.0000E+00  0.6000E+01
  -9.360  0.0000E+00  0.6000E+01
  -9.350  0.0000E+00  0.6000E+01
  -9.340  0.0000E+00  0.6000E+01
  -9.330  0.0000E+00  0.6000E+01
  -9.320  0.0000E+00  0.6000E+01
  -9.310  0.0000E+00  0.6000E+01
  -9.300  0.0000E+00  0.6000E+01
  -9.290  0.0000E+00  0.6000E+01
  -9.280  0.0000E+00  0.6000E+01
  -9.270  0.0000E+00  0.6000E+01
  -9.260  0.0000E+00  0.6000E+01
  -9.250  0.0000E+00  0.6000E+01
  -9.240  0.0000E+00  0.6000E+01
  -9.230  0.0000E+00  0.6000E+01
  -9.220  0.0000E+00  0.6000E+01
  -9.210  0.0000E+00  0.6000E+01
  -9.200  0.0000E+00  0.6000E+01
  -9.190  0.0000E+00  0.6000E+01
  -9.180  0.0000E+00  0.6000E+01
  -9.170  0.0000E+00  0.6000E+01
  -9.160  0.0000E+00  0.6000E+01
  -9.150  0.0000E+00  0.6000E+01
  -9.140  0.0000E+00  0.6000E+01
  -9.130  0.0000E+00  0.6000E+01
  -9.120  0.0000E+00  0.6000E+01
  -9.110  0.0000E+00  0.6000E+01
  -9.100  0.0000E+00  0.6000E+01
  -9.090  0.0000E+00  0.6000E+01
  -9.080  0.0000E+00  0.6000E+01
  -9.070  0.0000E+00  0.6000E+01
  -9.060  0.0000E+00  0.6000E+01
  -9.050  0.0000E+00  0.6000E+01
  -9.040  0.0000E+00  0.6000E+01
  -9.030  0.0000E+00  0.6000E+01
  -9.020  0.0000E+00  0.6000E+01
  -9.010  0.0000E+00  0.6000E+01
  -9.000  0.0000E+00  0.6000E+01
  -8.990  0.0000E+00  0.6000E+01
  -8.980  0.0000E+00  0.6000E+01
  -8.970  0.0000E+00  0.6000E+01
  -8.960  0.0000E+00  0.6000E+01
  -8.950  0.0000E+00  0.6000E+01
  -8.940  0.0000E+00  0.6000E+01
  -8.930  0.0000E+00  0.6000E+01
  -8.920  0.0000E+00  0.6000E+01
  -8.910  0.0000E+00  0.6000E+01
  -8.900  0.0000E+00  0.6000E+01
  -8.890  0.0000E+00  0.6000E+01
  -8.880  0.0000E+00  0.6000E+01
  -8.870  0.0000E+00  0.6000E+01
  -8.860  0.0000E+00  0.6000E+01
  -8.850  0.0000E+00  0.6000E+01
  -8.840  0.0000E+00  0.6000E+01
  -8.830  0.0000E+00  0.6000E+01
  -8.820  0.0000E+00  0.6000E+01
  -8.810  0.0000E+00  0.6000E+01
  -8.800  0.0000E+00  0.6000E+01
  -8.790  0.0000E+00  0.6000E+01
  -8.780  0.0000E+00  0.6000E+01
  -8.770  0.0000E+00  0.6000E+01
  -8.760  0.0000E+00  0.6000E+01
  -8.750  0.0000E+00  0.6000E+01
  -8.740  0.0000E+00  0.6000E+01
  -8.730  0.0000E+00  0.6000E+01
  -8.720  0.0000E+00  0.6000E+01
  -8.710  0.0000E+00  0.6000E+01
  -8.700  0.0000E+00  0.6000E+01
  -8.690  0.0000E+00  0.6000E+01
  -8.680  0.0000E+00  0.6000E+01
  -8.670  0.0000E+00  0.6000E+01
  -8.660  0.0000E+00  0.6000E+01
  -8.650  0.0000E+00  0.6000E+01
  -8.640  0.0000E+00  0.6000E+01
  -8.630  0.0000E+00  0.6000E+01
  -8.620  0.0000E+00  0.6000E+01
  -8.610  0.0000E+00  0.6000E+01
  -8.600  0.0000E+00  0.6000E+01
  -8.590  0.0000E+00  0.6000E+01
  -8.580  0.0000E+00  0.6000E+01
  -8.570  0.0000E+00  0.6000E+01
  -8.560  0.0000E+00  0.6000E+01
  -8.550  0.0000E+00  0.6000E+01
  -8.540  0.0000E+00  0.6000E+01
  -8.530  0.0000E+00  0.6000E+01
  -8.520  0.0000E+00  0.6000E+01
  -8.510  0.0000E+00  0.6000E+01
  -8.500  0.0000E+00  0.6000E+01
  -8.490  0.0000E+00  0.6000E+01
  -8.480  0.0000E+00  0.6000E+01
  -8.470  0.0000E+00  0.6000E+01
  -8.460  0.0000E+00  0.6000E+01
  -8.450  0.0000E+00  0.6000E+01
  -8.440  0.0000E+00  0.6000E+01
  -8.430  0.0000E+00  0.6000E+01
  -8.420  0.0000E+00  0.6000E+01
  -8.410  0.0000E+00  0.6000E+01
  -8.400  0.0000E+00  0.6000E+01
  -8.390  0.0000E+00  0.6000E+01
  -8.380  0.0000E+00  0.6000E+01
  -8.370  0.0000E+00  0.6000E+01
  -8.360  0.0000E+00  0.6000E+01
  -8.350  0.0000E+00  0.6000E+01
  -8.340  0.0000E+00  0.6000E+01
  -8.330  0.0000E+00  0.6000E+01
  -8.320  0.0000E+00  0.6000E+01
  -8.310  0.0000E+00  0.6000E+01
  -8.300  0.0000E+00  0.6000E+01
  -8.290  0.0000E+00  0.6000E+01
  -8.280  0.0000E+00  0.6000E+01
  -8.270  0.0000E+00  0.6000E+01
  -8.260  0.0000E+00  0.6000E+01
  -8.250  0.0000E+00  0.6000E+01
  -8.240  0.0000E+00  0.6000E+01
  -8.230  0.1915E-06  0.6000E+01
  -8.220  0.6214E-02  0.6000E+01
  -8.210  0.2472E-01  0.6000E+01
  -8.200  0.5551E-01  0.6001E+01
  -8.190  0.9859E-01  0.6001E+01
  -8.180  0.1540E+00  0.6003E+01
  -8.170  0.2216E+00  0.6004E+01
  -8.160  0.2983E+00  0.6007E+01
  -8.150  0.3668E+00  0.6010E+01
  -8.140  0.4250E+00  0.6014E+01
  -8.130  0.4728E+00  0.6019E+01
  -8.120  0.5102E+00  0.6024E+01
  -8.110  0.5373E+00  0.6029E+01
  -8.100  0.5546E+00  0.6034E+01
  -8.090  0.5726E+00  0.6040E+01
  -8.080  0.5946E+00  0.6046E+01
  -8.070  0.6206E+00  0.6052E+01
  -8.060  0.6505E+00  0.6058E+01
  -8.050  0.6845E+00  0.6065E+01
  -8.040  0.7223E+00  0.6072E+01
  -8.030  0.7620E+00  0.6079E+01
  -8.020  0.8025E+00  0.6087E+01
  -8.010  0.8438E+00  0.6096E+01
  -8.000  0.8858E+00  0.6104E+01
  -7.990  0.9274E+00  0.6113E+01
  -7.980  0.9685E+00  0.6123E+01
  -7.970  0.1009E+01  0.6133E+01
  -7.960  0.1050E+01  0.6143E+01
  -7.950  0.1089E+01  0.6154E+01
  -7.940  0.1130E+01  0.6165E+01
  -7.930  0.1173E+01  0.6176E+01
  -7.920  0.1216E+01  0.6188E+01
  -7.910  0.1261E+01  0.6201E+01
  -7.900  0.1307E+01  0.6213E+01
  -7.890  0.1354E+01  0.6227E+01
  -7.880  0.1402E+01  0.6240E+01
  -7.870  0.1450E+01  0.6255E+01
  -7.860  0.1499E+01  0.6269E+01
  -7.850  0.1549E+01  0.6285E+01
  -7.840  0.1599E+01  0.6300E+01
  -7.830  0.1653E+01  0.6317E+01
  -7.820  0.1727E+01  0.6334E+01
  -7.810  0.1823E+01  0.6351E+01
  -7.800  0.1939E+01  0.6370E+01
  -7.790  0.2077E+01  0.6390E+01
  -7.780  0.2237E+01  0.6412E+01
  -7.770  0.2413E+01  0.6435E+01
  -7.760  0.2587E+01  0.6460E+01
  -7.750  0.2735E+01  0.6487E+01
  -7.740  0.2841E+01  0.6515E+01
  -7.730  0.2905E+01  0.6543E+01
  -7.720  0.2927E+01  0.6573E+01
  -7.710  0.2910E+01  0.6602E+01
  -7.700  0.2861E+01  0.6631E+01
  -7.690  0.2812E+01  0.6659E+01
  -7.680  0.2777E+01  0.6687E+01
  -7.670  0.2754E+01  0.6715E+01
  -7.660  0.2744E+01  0.6742E+01
  -7.650  0.2746E+01  0.6769E+01
  -7.640  0.2758E+01  0.6797E+01
  -7.630  0.2770E+01  0.6825E+01
  -7.620  0.2780E+01  0.6852E+01
  -7.610  0.2786E+01  0.6880E+01
  -7.600  0.2789E+01  0.6908E+01
  -7.590  0.2787E+01  0.6936E+01
  -7.580  0.2783E+01  0.6964E+01
  -7.570  0.2774E+01  0.6992E+01
  -7.560  0.2763E+01  0.7019E+01
  -7.550  0.2749E+01  0.7047E+01
  -7.540  0.2735E+01  0.7074E+01
  -7.530  0.2721E+01  0.7102E+01
  -7.520  0.2708E+01  0.7129E+01
  -7.510  0.2695E+01  0.7156E+01
  -7.500  0.2683E+01  0.7183E+01
  -7.490  0.2670E+01  0.7209E+01
  -7.480  0.2655E+01  0.7236E+01
  -7.470  0.2639E+01  0.7262E+01
  -7.460  0.2622E+01  0.7289E+01
  -7.450  0.2612E+01  0.7315E+01
  -7.440  0.2610E+01  0.7341E+01
  -7.430  0.2616E+01  0.7367E+01
  -7.420  0.2631E+01  0.7393E+01
  -7.410  0.2653E+01  0.7420E+01
  -7.400  0.2681E+01  0.7446E+01
  -7.390  0.2712E+01  0.7473E+01
  -7.380  0.2722E+01  0.7501E+01
  -7.370  0.2700E+01  0.7528E+01
  -7.360  0.2646E+01  0.7555E+01
  -7.350  0.2559E+01  0.7581E+01
  -7.340  0.2440E+01  0.7606E+01
  -7.330  0.2292E+01  0.7629E+01
  -7.320  0.2130E+01  0.7651E+01
  -7.310  0.1968E+01  0.7672E+01
  -7.300  0.1826E+01  0.7691E+01
  -7.290  0.1705E+01  0.7708E+01
  -7.280  0.1603E+01  0.7725E+01
  -7.270  0.1522E+01  0.7741E+01
  -7.260  0.1460E+01  0.7755E+01
  -7.250  0.1404E+01  0.7770E+01
  -7.240  0.1349E+01  0.7784E+01
  -7.230  0.1295E+01  0.7797E+01
  -7.220  0.1241E+01  0.7809E+01
  -7.210  0.1188E+01  0.7822E+01
  -7.200  0.1136E+01  0.7833E+01
  -7.190  0.1084E+01  0.7844E+01
  -7.180  0.1033E+01  0.7855E+01
  -7.170  0.9848E+00  0.7865E+01
  -7.160  0.9384E+00  0.7875E+01
  -7.150  0.8941E+00  0.7884E+01
  -7.140  0.8518E+00  0.7893E+01
  -7.130  0.8115E+00  0.7901E+01
  -7.120  0.7732E+00  0.7909E+01
  -7.110  0.7366E+00  0.7916E+01
  -7.100  0.7008E+00  0.7923E+01
  -7.090  0.6665E+00  0.7930E+01
  -7.080  0.6342E+00  0.7937E+01
  -7.070  0.6039E+00  0.7943E+01
  -7.060  0.5757E+00  0.7949E+01
  -7.050  0.5495E+00  0.7955E+01
  -7.040  0.5254E+00  0.7960E+01
  -7.030  0.5033E+00  0.7965E+01
  -7.020  0.4815E+00  0.7970E+01
  -7.010  0.4552E+00  0.7975E+01
  -7.000  0.4242E+00  0.7979E+01
  -6.990  0.3885E+00  0.7983E+01
  -6.980  0.3481E+00  0.7987E+01
  -6.970  0.3029E+00  0.7990E+01
  -6.960  0.2530E+00  0.7993E+01
  -6.950  0.1987E+00  0.7995E+01
  -6.940  0.1485E+00  0.7997E+01
  -6.930  0.1056E+00  0.7998E+01
  -6.920  0.6995E-01  0.7999E+01
  -6.910  0.4163E-01  0.8000E+01
  -6.900  0.2062E-01  0.8000E+01
  -6.890  0.6915E-02  0.8000E+01
  -6.880  0.5159E-03  0.8000E+01
  -6.870  0.0000E+00  0.8000E+01
  -6.860  0.0000E+00  0.8000E+01
  -6.850  0.0000E+00  0.8000E+01
  -6.840  0.0000E+00  0.8000E+01
  -6.830  0.0000E+00  0.8000E+01
  -6.820  0.0000E+00  0.8000E+01
  -6.810  0.0000E+00  0.8000E+01
  -6.800  0.0000E+00  0.8000E+01
  -6.790  0.0000E+00  0.8000E+01
  -6.780  0.0000E+00  0.8000E+01
  -6.770  0.0000E+00  0.8000E+01
  -6.760  0.0000E+00  0.8000E+01
  -6.750  0.0000E+00  0.8000E+01
  -6.740  0.0000E+00  0.8000E+01
  -6.730  0.0000E+00  0.8000E+01
  -6.720  0.0000E+00  0.8000E+01
  -6.710  0.0000E+00  0.8000E+01
  -6.700  0.0000E+00  0.8000E+01
  -6.690  0.0000E+00  0.8000E+01
  -6.680  0.0000E+00  0.8000E+01
  -6.670  0.0000E+00  0.8000E+01
  -6.660  0.0000E+00  0.8000E+01
  -6.650  0.0000E+00  0.8000E+01
  -6.640  0.0000E+00  0.8000E+01
  -6.630  0.0000E+00  0.8000E+01
  -6.620  0.0000E+00  0.8000E+01
  -6.610  0.0000E+00  0.8000E+01
  -6.600  0.0000E+00  0.8000E+01
  -6.590  0.0000E+00  0.8000E+01
  -6.580  0.0000E+00  0.8000E+01
  -6.570  0.0000E+00  0.8000E+01
  -6.560  0.0000E+00  0.8000E+01
  -6.550  0.0000E+00  0.8000E+01
  -6.540  0.0000E+00  0.8000E+01
  -6.530  0.0000E+00  0.8000E+01
  -6.520  0.0000E+00  0.8000E+01
  -6.510  0.0000E+00  0.8000E+01
  -6.500  0.0000E+00  0.8000E+01
  -6.490  0.0000E+00  0.8000E+01
  -6.480  0.0000E+00  0.8000E+01
  -6.470  0.0000E+00  0.8000E+01
  -6.460  0.0000E+00  0.8000E+01
  -6.450  0.0000E+00  0.8000E+01
  -6.440  0.0000E+00  0.8000E+01
  -6.430  0.0000E+00  0.8000E+01
  -6.420  0.0000E+00  0.8000E+01
  -6.410  0.0000E+00  0.8000E+01
  -6.400  0.0000E+00  0.8000E+01
  -6.390  0.0000E+00  0.8000E+01
  -6.380  0.0000E+00  0.8000E+01
  -6.370  0.0000E+00  0.8000E+01
  -6.360  0.0000E+00  0.8000E+01
  -6.350  0.0000E+00  0.8000E+01
  -6.340  0.0000E+00  0.8000E+01
  -6.330  0.0000E+00  0.8000E+01
  -6.320  0.0000E+00  0.8000E+01
  -6.310  0.0000E+00  0.8000E+01
  -6.300  0.0000E+00  0.8000E+01
  -6.290  0.0000E+00  0.8000E+01
  -6.280  0.0000E+00  0.8000E+01
  -6.270  0.0000E+00  0.8000E+01
  -6.260  0.0000E+00  0.8000E+01
  -6.250  0.0000E+00  0.8000E+01
  -6.240  0.0000E+00  0.8000E+01
  -6.230  0.0000E+00  0.8000E+01
  -6.220  0.0000E+00  0.8000E+01
  -6.210  0.0000E+00  0.8000E+01
  -6.200  0.0000E+00  0.8000E+01
  -6.190  0.0000E+00  0.8000E+01
  -6.180  0.0000E+00  0.8000E+01
  -6.170  0.0000E+00  0.8000E+01
  -6.160  0.0000E+00  0.8000E+01
  -6.150  0.0000E+00  0.8000E+01
  -6.140  0.0000E+00  0.8000E+01
  -6.130  0.0000E+00  0.8000E+01
  -6.120  0.0000E+00  0.8000E+01
  -6.110  0.0000E+00  0.8000E+01
  -6.100  0.0000E+00  0.8000E+01
  -6.090  0.0000E+00  0.8000E+01
  -6.080  0.0000E+00  0.8000E+01
  -6.070  0.0000E+00  0.8000E+01
  -6.060  0.0000E+00  0.8000E+01
  -6.050  0.0000E+00  0.8000E+01
  -6.040  0.0000E+00  0.8000E+01
  -6.030  0.0000E+00  0.8000E+01
  -6.020  0.0000E+00  0.8000E+01
  -6.010  0.0000E+00  0.8000E+01
  -6.000  0.0000E+00  0.8000E+01
  -5.990  0.0000E+00  0.8000E+01
  -5.980  0.0000E+00  0.8000E+01
  -5.970  0.0000E+00  0.8000E+01
  -5.960  0.0000E+00  0.8000E+01
  -5.950  0.0000E+00  0.8000E+01
  -5.940  0.0000E+00  0.8000E+01
  -5.930  0.0000E+00  0.8000E+01
  -5.920  0.0000E+00  0.8000E+01
  -5.910  0.0000E+00  0.8000E+01
  -5.900  0.0000E+00  0.8000E+01
  -5.890  0.0000E+00  0.8000E+01
  -5.880  0.0000E+00  0.8000E+01
  -5.870  0.0000E+00  0.8000E+01
  -5.860  0.0000E+00  0.8000E+01
  -5.850  0.0000E+00  0.8000E+01
  -5.840  0.0000E+00  0.8000E+01
  -5.830  0.0000E+00  0.8000E+01
  -5.820  0.0000E+00  0.8000E+01
  -5.810  0.0000E+00  0.8000E+01
  -5.800  0.0000E+00  0.8000E+01
  -5.790  0.0000E+00  0.8000E+01
  -5.780  0.0000E+00  0.8000E+01
  -5.770  0.0000E+00  0.8000E+01
  -5.760  0.0000E+00  0.8000E+01
  -5.750  0.0000E+00  0.8000E+01
  -5.740  0.0000E+00  0.8000E+01
  -5.730  0.0000E+00  0.8000E+01
  -5.720  0.0000E+00  0.8000E+01
  -5.710  0.0000E+00  0.8000E+01
  -5.700  0.0000E+00  0.8000E+01
  -5.690  0.0000E+00  0.8000E+01
  -5.680  0.0000E+00  0.8000E+01
  -5.670  0.0000E+00  0.8000E+01
  -5.660  0.0000E+00  0.8000E+01
  -5.650  0.0000E+00  0.8000E+01
  -5.640  0.0000E+00  0.8000E+01
  -5.630  0.0000E+00  0.8000E+01
  -5.620  0.0000E+00  0.8000E+01
  -5.610  0.0000E+00  0.8000E+01
  -5.600  0.0000E+00  0.8000E+01
  -5.590  0.0000E+00  0.8000E+01
  -5.580  0.0000E+00  0.8000E+01
  -5.570  0.0000E+00  0.8000E+01
  -5.560  0.0000E+00  0.8000E+01
  -5.550  0.0000E+00  0.8000E+01
  -5.540  0.0000E+00  0.8000E+01
  -5.530  0.0000E+00  0.8000E+01
  -5.520  0.0000E+00  0.8000E+01
  -5.510  0.0000E+00  0.8000E+01
  -5.500  0.0000E+00  0.8000E+01
  -5.490  0.0000E+00  0.8000E+01
  -5.480  0.0000E+00  0.8000E+01
  -5.470  0.0000E+00  0.8000E+01
  -5.460  0.0000E+00  0.8000E+01
  -5.450  0.0000E+00  0.8000E+01
  -5.440  0.0000E+00  0.8000E+01
  -5.430  0.0000E+00  0.8000E+01
  -5.420  0.0000E+00  0.8000E+01
  -5.410  0.0000E+00  0.8000E+01
  -5.400  0.0000E+00  0.8000E+01
  -5.390  0.0000E+00  0.8000E+01
  -5.380  0.0000E+00  0.8000E+01
  -5.370  0.0000E+00  0.8000E+01
  -5.360  0.0000E+00  0.8000E+01
  -5.350  0.0000E+00  0.8000E+01
  -5.340  0.0000E+00  0.8000E+01
  -5.330  0.0000E+00  0.8000E+01
  -5.320  0.0000E+00  0.8000E+01
  -5.310  0.0000E+00  0.8000E+01
  -5.300  0.0000E+00  0.8000E+01
  -5.290  0.0000E+00  0.8000E+01
  -5.280  0.0000E+00  0.8000E+01
  -5.270  0.0000E+00  0.8000E+01
  -5.260  0.0000E+00  0.8000E+01
  -5.250  0.0000E+00  0.8000E+01
  -5.240  0.0000E+00  0.8000E+01
  -5.230  0.0000E+00  0.8000E+01
  -5.220  0.0000E+00  0.8000E+01
  -5.210  0.0000E+00  0.8000E+01
  -5.200  0.0000E+00  0.8000E+01
  -5.190  0.0000E+00  0.8000E+01
  -5.180  0.0000E+00  0.8000E+01
  -5.170  0.0000E+00  0.8000E+01
  -5.160  0.0000E+00  0.8000E+01
  -5.150  0.0000E+00  0.8000E+01
  -5.140  0.0000E+00  0.8000E+01
  -5.130  0.0000E+00  0.8000E+01
  -5.120  0.0000E+00  0.8000E+01
  -5.110  0.0000E+00  0.8000E+01
  -5.100  0.0000E+00  0.8000E+01
  -5.090  0.0000E+00  0.8000E+01
  -5.080  0.0000E+00  0.8000E+01
  -5.070  0.0000E+00  0.8000E+01
  -5.060  0.0000E+00  0.8000E+01
  -5.050  0.0000E+00  0.8000E+01
  -5.040  0.0000E+00  0.8000E+01
  -5.030  0.0000E+00  0.8000E+01
  -5.020  0.0000E+00  0.8000E+01
  -5.010  0.0000E+00  0.8000E+01
  -5.000  0.0000E+00  0.8000E+01
  -4.990  0.0000E+00  0.8000E+01
  -4.980  0.0000E+00  0.8000E+01
  -4.970  0.0000E+00  0.8000E+01
  -4.960  0.0000E+00  0.8000E+01
  -4.950  0.0000E+00  0.8000E+01
  -4.940  0.0000E+00  0.8000E+01
  -4.930  0.0000E+00  0.8000E+01
  -4.920  0.0000E+00  0.8000E+01
  -4.910  0.0000E+00  0.8000E+01
  -4.900  0.0000E+00  0.8000E+01
  -4.890  0.0000E+00  0.8000E+01
  -4.880  0.0000E+00  0.8000E+01
  -4.870  0.0000E+00  0.8000E+01
  -4.860  0.0000E+00  0.8000E+01
  -4.850  0.0000E+00  0.8000E+01
  -4.840  0.0000E+00  0.8000E+01
  -4.830  0.0000E+00  0.8000E+01
  -4.820  0.0000E+00  0.8000E+01
  -4.810  0.0000E+00  0.8000E+01
  -4.800  0.0000E+00  0.8000E+01
  -4.790  0.0000E+00  0.8000E+01
  -4.780  0.0000E+00  0.8000E+01
  -4.770  0.0000E+00  0.8000E+01
  -4.760  0.0000E+00  0.8000E+01
  -4.750  0.0000E+00  0.8000E+01
  -4.740  0.0000E+00  0.8000E+01
  -4.730  0.0000E+00  0.8000E+01
  -4.720  0.0000E+00  0.8000E+01
  -4.710  0.0000E+00  0.8000E+01
  -4.700  0.0000E+00  0.8000E+01
  -4.690  0.0000E+00  0.8000E+01
  -4.680  0.0000E+00  0.8000E+01
  -4.670  0.0000E+00  0.8000E+01
  -4.660  0.0000E+00  0.8000E+01
  -4.650  0.0000E+00  0.8000E+01
  -4.640  0.0000E+00  0.8000E+01
  -4.630  0.0000E+00  0.8000E+01
  -4.620  0.0000E+00  0.8000E+01
  -4.610  0.0000E+00  0.8000E+01
  -4.600  0.0000E+00  0.8000E+01
  -4.590  0.0000E+00  0.8000E+01
  -4.580  0.0000E+00  0.8000E+01
  -4.570  0.0000E+00  0.8000E+01
  -4.560  0.0000E+00  0.8000E+01
  -4.550  0.0000E+00  0.8000E+01
  -4.540  0.0000E+00  0.8000E+01
  -4.530  0.0000E+00  0.8000E+01
  -4.520  0.0000E+00  0.8000E+01
  -4.510  0.0000E+00  0.8000E+01
  -4.500  0.0000E+00  0.8000E+01
  -4.490  0.0000E+00  0.8000E+01
  -4.480  0.0000E+00  0.8000E+01
  -4.470  0.0000E+00  0.8000E+01
  -4.460  0.0000E+00  0.8000E+01
  -4.450  0.0000E+00  0.8000E+01
  -4.440  0.0000E+00  0.8000E+01
  -4.430  0.0000E+00  0.8000E+01
  -4.420  0.0000E+00  0.8000E+01
  -4.410  0.0000E+00  0.8000E+01
  -4.400  0.0000E+00  0.8000E+01
  -4.390  0.0000E+00  0.8000E+01
  -4.380  0.0000E+00  0.8000E+01
  -4.370  0.0000E+00  0.8000E+01
  -4.360  0.0000E+00  0.8000E+01
  -4.350  0.0000E+00  0.8000E+01
  -4.340  0.0000E+00  0.8000E+01
  -4.330  0.0000E+00  0.8000E+01
  -4.320  0.0000E+00  0.8000E+01
  -4.310  0.0000E+00  0.8000E+01
  -4.300  0.0000E+00  0.8000E+01
  -4.290  0.0000E+00  0.8000E+01
  -4.280  0.0000E+00  0.8000E+01
  -4.270  0.0000E+00  0.8000E+01
  -4.260  0.0000E+00  0.8000E+01
  -4.250  0.0000E+00  0.8000E+01
  -4.240  0.0000E+00  0.8000E+01
  -4.230  0.0000E+00  0.8000E+01
  -4.220  0.0000E+00  0.8000E+01
  -4.210  0.0000E+00  0.8000E+01
  -4.200  0.0000E+00  0.8000E+01
  -4.190  0.0000E+00  0.8000E+01
  -4.180  0.0000E+00  0.8000E+01
  -4.170  0.0000E+00  0.8000E+01
  -4.160  0.0000E+00  0.8000E+01
  -4.150  0.0000E+00  0.8000E+01
  -4.140  0.0000E+00  0.8000E+01
  -4.130  0.0000E+00  0.8000E+01
  -4.120  0.0000E+00  0.8000E+01
  -4.110  0.0000E+00  0.8000E+01
  -4.100  0.0000E+00  0.8000E+01
  -4.090  0.0000E+00  0.8000E+01
  -4.080  0.0000E+00  0.8000E+01
  -4.070  0.0000E+00  0.8000E+01
  -4.060  0.0000E+00  0.8000E+01
  -4.050  0.0000E+00  0.8000E+01
  -4.040  0.0000E+00  0.8000E+01
  -4.030  0.0000E+00  0.8000E+01
  -4.020  0.0000E+00  0.8000E+01
  -4.010  0.0000E+00  0.8000E+01
  -4.000  0.0000E+00  0.8000E+01
  -3.990  0.0000E+00  0.8000E+01
  -3.980  0.0000E+00  0.8000E+01
  -3.970  0.0000E+00  0.8000E+01
  -3.960  0.0000E+00  0.8000E+01
  -3.950  0.0000E+00  0.8000E+01
  -3.940  0.0000E+00  0.8000E+01
  -3.930  0.0000E+00  0.8000E+01
  -3.920  0.0000E+00  0.8000E+01
  -3.910  0.0000E+00  0.8000E+01
  -3.900  0.0000E+00  0.8000E+01
  -3.890  0.0000E+00  0.8000E+01
  -3.880  0.0000E+00  0.8000E+01
  -3.870  0.0000E+00  0.8000E+01
  -3.860  0.0000E+00  0.8000E+01
  -3.850  0.0000E+00  0.8000E+01
  -3.840  0.0000E+00  0.8000E+01
  -3.830  0.0000E+00  0.8000E+01
  -3.820  0.0000E+00  0.8000E+01
  -3.810  0.0000E+00  0.8000E+01
  -3.800  0.0000E+00  0.8000E+01
  -3.790  0.0000E+00  0.8000E+01
  -3.780  0.0000E+00  0.8000E+01
  -3.770  0.0000E+00  0.8000E+01
  -3.760  0.0000E+00  0.8000E+01
  -3.750  0.0000E+00  0.8000E+01
  -3.740  0.0000E+00  0.8000E+01
  -3.730  0.0000E+00  0.8000E+01
  -3.720  0.0000E+00  0.8000E+01
  -3.710  0.0000E+00  0.8000E+01
  -3.700  0.0000E+00  0.8000E+01
  -3.690  0.0000E+00  0.8000E+01
  -3.680  0.0000E+00  0.8000E+01
  -3.670  0.0000E+00  0.8000E+01
  -3.660  0.0000E+00  0.8000E+01
  -3.650  0.0000E+00  0.8000E+01
  -3.640  0.0000E+00  0.8000E+01
  -3.630  0.0000E+00  0.8000E+01
  -3.620  0.0000E+00  0.8000E+01
  -3.610  0.0000E+00  0.8000E+01
  -3.600  0.0000E+00  0.8000E+01
  -3.590  0.0000E+00  0.8000E+01
  -3.580  0.0000E+00  0.8000E+01
  -3.570  0.0000E+00  0.8000E+01
  -3.560  0.0000E+00  0.8000E+01
  -3.550  0.0000E+00  0.8000E+01
  -3.540  0.0000E+00  0.8000E+01
  -3.530  0.0000E+00  0.8000E+01
  -3.520  0.0000E+00  0.8000E+01
  -3.510  0.0000E+00  0.8000E+01
  -3.500  0.0000E+00  0.8000E+01
  -3.490  0.0000E+00  0.8000E+01
  -3.480  0.0000E+00  0.8000E+01
  -3.470  0.0000E+00  0.8000E+01
  -3.460  0.0000E+00  0.8000E+01
  -3.450  0.0000E+00  0.8000E+01
  -3.440  0.0000E+00  0.8000E+01
  -3.430  0.0000E+00  0.8000E+01
  -3.420  0.0000E+00  0.8000E+01
  -3.410  0.0000E+00  0.8000E+01
  -3.400  0.0000E+00  0.8000E+01
  -3.390  0.0000E+00  0.8000E+01
  -3.380  0.0000E+00  0.8000E+01
  -3.370  0.0000E+00  0.8000E+01
  -3.360  0.0000E+00  0.8000E+01
  -3.350  0.0000E+00  0.8000E+01
  -3.340  0.0000E+00  0.8000E+01
  -3.330  0.0000E+00  0.8000E+01
  -3.320  0.0000E+00  0.8000E+01
  -3.310  0.0000E+00  0.8000E+01
  -3.300  0.0000E+00  0.8000E+01
  -3.290  0.0000E+00  0.8000E+01
  -3.280  0.0000E+00  0.8000E+01
  -3.270  0.0000E+00  0.8000E+01
  -3.260  0.0000E+00  0.8000E+01
  -3.250  0.0000E+00  0.8000E+01
  -3.240  0.0000E+00  0.8000E+01
  -3.230  0.0000E+00  0.8000E+01
  -3.220  0.0000E+00  0.8000E+01
  -3.210  0.0000E+00  0.8000E+01
  -3.200  0.0000E+00  0.8000E+01
  -3.190  0.0000E+00  0.8000E+01
  -3.180  0.0000E+00  0.8000E+01
  -3.170  0.0000E+00  0.8000E+01
  -3.160  0.0000E+00  0.8000E+01
  -3.150  0.0000E+00  0.8000E+01
  -3.140  0.0000E+00  0.8000E+01
  -3.130  0.0000E+00  0.8000E+01
  -3.120  0.0000E+00  0.8000E+01
  -3.110  0.0000E+00  0.8000E+01
  -3.100  0.0000E+00  0.8000E+01
  -3.090  0.0000E+00  0.8000E+01
  -3.080  0.0000E+00  0.8000E+01
  -3.070  0.0000E+00  0.8000E+01
  -3.060  0.0000E+00  0.8000E+01
  -3.050  0.0000E+00  0.8000E+01
  -3.040  0.0000E+00  0.8000E+01
  -3.030  0.0000E+00  0.8000E+01
  -3.020  0.0000E+00  0.8000E+01
  -3.010  0.0000E+00  0.8000E+01
  -3.000  0.0000E+00  0.8000E+01
  -2.990  0.0000E+00  0.8000E+01
  -2.980  0.0000E+00  0.8000E+01
  -2.970  0.0000E+00  0.8000E+01
  -2.960  0.0000E+00  0.8000E+01
  -2.950  0.0000E+00  0.8000E+01
  -2.940  0.0000E+00  0.8000E+01
  -2.930  0.0000E+00  0.8000E+01
  -2.920  0.0000E+00  0.8000E+01
  -2.910  0.0000E+00  0.8000E+01
  -2.900  0.0000E+00  0.8000E+01
  -2.890  0.0000E+00  0.8000E+01
  -2.880  0.0000E+00  0.8000E+01
  -2.870  0.0000E+00  0.8000E+01
  -2.860  0.0000E+00  0.8000E+01
  -2.850  0.0000E+00  0.8000E+01
  -2.840  0.0000E+00  0.8000E+01
  -2.830  0.0000E+00  0.8000E+01
  -2.820  0.0000E+00  0.8000E+01
  -2.810  0.0000E+00  0.8000E+01
  -2.800  0.0000E+00  0.8000E+01
  -2.790  0.0000E+00  0.8000E+01
  -2.780  0.0000E+00  0.8000E+01
  -2.770  0.0000E+00  0.8000E+01
  -2.760  0.0000E+00  0.8000E+01
  -2.750  0.0000E+00  0.8000E+01
  -2.740  0.0000E+00  0.8000E+01
  -2.730  0.1857E+00  0.8000E+01
  -2.720  0.1200E+01  0.8007E+01
  -2.710  0.1366E+01  0.8021E+01
  -2.700  0.1320E+01  0.8033E+01
  -2.690  0.1581E+01  0.8048E+01
  -2.680  0.1869E+01  0.8065E+01
  -2.670  0.2164E+01  0.8085E+01
  -2.660  0.2513E+01  0.8109E+01
  -2.650  0.2881E+01  0.8136E+01
  -2.640  0.3471E+01  0.8167E+01
  -2.630  0.4653E+01  0.8207E+01
  -2.620  0.4725E+01  0.8255E+01
  -2.610  0.4405E+01  0.8300E+01
  -2.600  0.4755E+01  0.8345E+01
  -2.590  0.5072E+01  0.8394E+01
  -2.580  0.5349E+01  0.8447E+01
  -2.570  0.5582E+01  0.8501E+01
  -2.560  0.5781E+01  0.8558E+01
  -2.550  0.6027E+01  0.8617E+01
  -2.540  0.6294E+01  0.8679E+01
  -2.530  0.6444E+01  0.8742E+01
  -2.520  0.6728E+01  0.8808E+01
  -2.510  0.6932E+01  0.8877E+01
  -2.500  0.7014E+01  0.8946E+01
  -2.490  0.6975E+01  0.9016E+01
  -2.480  0.6843E+01  0.9086E+01
  -2.470  0.6631E+01  0.9153E+01
  -2.460  0.6397E+01  0.9218E+01
  -2.450  0.6146E+01  0.9281E+01
  -2.440  0.6002E+01  0.9341E+01
  -2.430  0.5979E+01  0.9401E+01
  -2.420  0.5659E+01  0.9460E+01
  -2.410  0.5187E+01  0.9514E+01
  -2.400  0.4754E+01  0.9564E+01
  -2.390  0.4373E+01  0.9610E+01
  -2.380  0.3940E+01  0.9651E+01
  -2.370  0.3539E+01  0.9689E+01
  -2.360  0.3356E+01  0.9723E+01
  -2.350  0.3229E+01  0.9756E+01
  -2.340  0.3113E+01  0.9787E+01
  -2.330  0.3002E+01  0.9818E+01
  -2.320  0.2882E+01  0.9847E+01
  -2.310  0.2765E+01  0.9876E+01
  -2.300  0.2697E+01  0.9903E+01
  -2.290  0.2678E+01  0.9930E+01
  -2.280  0.2674E+01  0.9956E+01
  -2.270  0.2670E+01  0.9983E+01
  -2.260  0.2666E+01  0.1001E+02
  -2.250  0.2662E+01  0.1004E+02
  -2.240  0.2658E+01  0.1006E+02
  -2.230  0.2654E+01  0.1009E+02
  -2.220  0.2650E+01  0.1012E+02
  -2.210  0.2646E+01  0.1014E+02
  -2.200  0.2642E+01  0.1017E+02
  -2.190  0.2638E+01  0.1020E+02
  -2.180  0.2634E+01  0.1022E+02
  -2.170  0.2631E+01  0.1025E+02
  -2.160  0.2627E+01  0.1027E+02
  -2.150  0.2623E+01  0.1030E+02
  -2.140  0.2619E+01  0.1033E+02
  -2.130  0.2615E+01  0.1035E+02
  -2.120  0.2612E+01  0.1038E+02
  -2.110  0.2608E+01  0.1041E+02
  -2.100  0.2604E+01  0.1043E+02
  -2.090  0.2601E+01  0.1046E+02
  -2.080  0.2597E+01  0.1048E+02
  -2.070  0.2593E+01  0.1051E+02
  -2.060  0.2590E+01  0.1054E+02
  -2.050  0.2586E+01  0.1056E+02
  -2.040  0.2589E+01  0.1059E+02
  -2.030  0.2620E+01  0.1061E+02
  -2.020  0.2678E+01  0.1064E+02
  -2.010  0.2726E+01  0.1067E+02
  -2.000  0.2763E+01  0.1069E+02
  -1.990  0.2806E+01  0.1072E+02
  -1.980  0.2968E+01  0.1075E+02
  -1.970  0.3126E+01  0.1078E+02
  -1.960  0.3173E+01  0.1081E+02
  -1.950  0.3225E+01  0.1084E+02
  -1.940  0.3281E+01  0.1088E+02
  -1.930  0.3329E+01  0.1091E+02
  -1.920  0.3287E+01  0.1094E+02
  -1.910  0.3222E+01  0.1098E+02
  -1.900  0.3278E+01  0.1101E+02
  -1.890  0.3395E+01  0.1104E+02
  -1.880  0.3486E+01  0.1108E+02
  -1.870  0.3519E+01  0.1111E+02
  -1.860  0.3490E+01  0.1115E+02
  -1.850  0.3466E+01  0.1118E+02
  -1.840  0.3441E+01  0.1122E+02
  -1.830  0.3418E+01  0.1125E+02
  -1.820  0.3396E+01  0.1128E+02
  -1.810  0.3342E+01  0.1132E+02
  -1.800  0.3277E+01  0.1135E+02
  -1.790  0.3229E+01  0.1138E+02
  -1.780  0.3210E+01  0.1142E+02
  -1.770  0.3237E+01  0.1145E+02
  -1.760  0.3260E+01  0.1148E+02
  -1.750  0.3275E+01  0.1151E+02
  -1.740  0.3284E+01  0.1155E+02
  -1.730  0.3292E+01  0.1158E+02
  -1.720  0.3301E+01  0.1161E+02
  -1.710  0.3310E+01  0.1164E+02
  -1.700  0.3319E+01  0.1168E+02
  -1.690  0.3329E+01  0.1171E+02
  -1.680  0.3339E+01  0.1174E+02
  -1.670  0.3349E+01  0.1178E+02
  -1.660  0.3359E+01  0.1181E+02
  -1.650  0.3370E+01  0.1184E+02
  -1.640  0.3381E+01  0.1188E+02
  -1.630  0.3393E+01  0.1191E+02
  -1.620  0.3405E+01  0.1195E+02
  -1.610  0.3417E+01  0.1198E+02
  -1.600  0.3429E+01  0.1201E+02
  -1.590  0.3442E+01  0.1205E+02
  -1.580  0.3455E+01  0.1208E+02
  -1.570  0.3682E+01  0.1212E+02
  -1.560  0.4462E+01  0.1216E+02
  -1.550  0.5629E+01  0.1221E+02
  -1.540  0.7387E+01  0.1227E+02
  -1.530  0.8033E+01  0.1235E+02
  -1.520  0.5814E+01  0.1242E+02
  -1.510  0.5517E+01  0.1248E+02
  -1.500  0.4688E+01  0.1253E+02
  -1.490  0.5469E+01  0.1257E+02
  -1.480  0.9793E+01  0.1265E+02
  -1.470  0.1058E+02  0.1277E+02
  -1.460  0.9647E+01  0.1287E+02
  -1.450  0.1022E+02  0.1297E+02
  -1.440  0.1023E+02  0.1307E+02
  -1.430  0.1041E+02  0.1318E+02
  -1.420  0.1183E+02  0.1329E+02
  -1.410  0.9943E+01  0.1340E+02
  -1.400  0.8320E+01  0.1348E+02
  -1.390  0.7506E+01  0.1356E+02
  -1.380  0.6625E+01  0.1363E+02
  -1.370  0.5748E+01  0.1370E+02
  -1.360  0.4874E+01  0.1375E+02
  -1.350  0.3978E+01  0.1379E+02
  -1.340  0.3280E+01  0.1383E+02
  -1.330  0.2660E+01  0.1386E+02
  -1.320  0.2094E+01  0.1388E+02
  -1.310  0.2740E+01  0.1391E+02
  -1.300  0.3251E+01  0.1394E+02
  -1.290  0.3686E+01  0.1397E+02
  -1.280  0.4074E+01  0.1401E+02
  -1.270  0.4372E+01  0.1405E+02
  -1.260  0.4592E+01  0.1410E+02
  -1.250  0.4733E+01  0.1415E+02
  -1.240  0.4795E+01  0.1419E+02
  -1.230  0.4777E+01  0.1424E+02
  -1.220  0.4688E+01  0.1429E+02
  -1.210  0.4591E+01  0.1433E+02
  -1.200  0.4499E+01  0.1438E+02
  -1.190  0.4480E+01  0.1443E+02
  -1.180  0.4526E+01  0.1447E+02
  -1.170  0.4671E+01  0.1452E+02
  -1.160  0.5019E+01  0.1456E+02
  -1.150  0.5530E+01  0.1462E+02
  -1.140  0.6042E+01  0.1467E+02
  -1.130  0.6596E+01  0.1474E+02
  -1.120  0.7062E+01  0.1481E+02
  -1.110  0.7602E+01  0.1488E+02
  -1.100  0.8349E+01  0.1496E+02
  -1.090  0.8746E+01  0.1505E+02
  -1.080  0.8960E+01  0.1513E+02
  -1.070  0.8155E+01  0.1522E+02
  -1.060  0.8019E+01  0.1530E+02
  -1.050  0.8177E+01  0.1538E+02
  -1.040  0.8345E+01  0.1546E+02
  -1.030  0.8524E+01  0.1555E+02
  -1.020  0.8584E+01  0.1563E+02
  -1.010  0.8418E+01  0.1572E+02
  -1.000  0.8049E+01  0.1580E+02
  -0.990  0.7729E+01  0.1588E+02
  -0.980  0.7472E+01  0.1596E+02
  -0.970  0.7527E+01  0.1603E+02
  -0.960  0.7586E+01  0.1611E+02
  -0.950  0.7499E+01  0.1618E+02
  -0.940  0.7580E+01  0.1626E+02
  -0.930  0.7802E+01  0.1634E+02
  -0.920  0.8059E+01  0.1641E+02
  -0.910  0.8769E+01  0.1650E+02
  -0.900  0.9527E+01  0.1659E+02
  -0.890  0.1001E+02  0.1669E+02
  -0.880  0.1053E+02  0.1679E+02
  -0.870  0.1089E+02  0.1690E+02
  -0.860  0.1078E+02  0.1701E+02
  -0.850  0.1060E+02  0.1711E+02
  -0.840  0.1095E+02  0.1722E+02
  -0.830  0.1171E+02  0.1733E+02
  -0.820  0.1152E+02  0.1745E+02
  -0.810  0.1129E+02  0.1756E+02
  -0.800  0.1077E+02  0.1767E+02
  -0.790  0.1007E+02  0.1778E+02
  -0.780  0.1002E+02  0.1788E+02
  -0.770  0.1047E+02  0.1798E+02
  -0.760  0.1162E+02  0.1809E+02
  -0.750  0.1388E+02  0.1822E+02
  -0.740  0.1681E+02  0.1837E+02
  -0.730  0.1774E+02  0.1854E+02
  -0.720  0.1706E+02  0.1872E+02
  -0.710  0.1611E+02  0.1889E+02
  -0.700  0.1522E+02  0.1904E+02
  -0.690  0.1426E+02  0.1919E+02
  -0.680  0.1326E+02  0.1933E+02
  -0.670  0.1277E+02  0.1946E+02
  -0.660  0.1283E+02  0.1958E+02
  -0.650  0.1118E+02  0.1970E+02
  -0.640  0.1500E+02  0.1983E+02
  -0.630  0.1619E+02  0.1999E+02
  -0.620  0.1566E+02  0.2014E+02
  -0.610  0.2124E+02  0.2033E+02
  -0.600  0.2087E+02  0.2054E+02
  -0.590  0.2048E+02  0.2075E+02
  -0.580  0.1971E+02  0.2095E+02
  -0.570  0.1874E+02  0.2114E+02
  -0.560  0.1888E+02  0.2133E+02
  -0.550  0.1908E+02  0.2153E+02
  -0.540  0.1752E+02  0.2171E+02
  -0.530  0.1771E+02  0.2188E+02
  -0.520  0.1918E+02  0.2208E+02
  -0.510  0.1581E+02  0.2225E+02
  -0.500  0.1404E+02  0.2240E+02
  -0.490  0.1341E+02  0.2253E+02
  -0.480  0.1304E+02  0.2266E+02
  -0.470  0.1287E+02  0.2279E+02
  -0.460  0.1272E+02  0.2292E+02
  -0.450  0.1259E+02  0.2305E+02
  -0.440  0.1247E+02  0.2317E+02
  -0.430  0.1278E+02  0.2330E+02
  -0.420  0.1294E+02  0.2343E+02
  -0.410  0.1300E+02  0.2356E+02
  -0.400  0.1253E+02  0.2368E+02
  -0.390  0.1227E+02  0.2381E+02
  -0.380  0.1268E+02  0.2393E+02
  -0.370  0.1310E+02  0.2406E+02
  -0.360  0.1267E+02  0.2419E+02
  -0.350  0.1189E+02  0.2431E+02
  -0.340  0.1096E+02  0.2443E+02
  -0.330  0.1033E+02  0.2453E+02
  -0.320  0.9967E+01  0.2464E+02
  -0.310  0.9661E+01  0.2473E+02
  -0.300  0.9368E+01  0.2483E+02
  -0.290  0.9089E+01  0.2492E+02
  -0.280  0.8825E+01  0.2501E+02
  -0.270  0.8636E+01  0.2510E+02
  -0.260  0.8685E+01  0.2518E+02
  -0.250  0.8570E+01  0.2527E+02
  -0.240  0.8269E+01  0.2536E+02
  -0.230  0.7704E+01  0.2544E+02
  -0.220  0.7904E+01  0.2551E+02
  -0.210  0.7051E+01  0.2559E+02
  -0.200  0.6052E+01  0.2565E+02
  -0.190  0.5174E+01  0.2571E+02
  -0.180  0.4217E+01  0.2576E+02
  -0.170  0.3291E+01  0.2580E+02
  -0.160  0.2569E+01  0.2582E+02
  -0.150  0.1696E+01  0.2585E+02
  -0.140  0.1565E+01  0.2586E+02
  -0.130  0.1435E+01  0.2588E+02
  -0.120  0.1308E+01  0.2589E+02
  -0.110  0.1182E+01  0.2590E+02
  -0.100  0.1058E+01  0.2592E+02
  -0.090  0.9365E+00  0.2593E+02
  -0.080  0.8164E+00  0.2593E+02
  -0.070  0.6982E+00  0.2594E+02
  -0.060  0.5872E+00  0.2595E+02
  -0.050  0.5099E+00  0.2595E+02
  -0.040  0.4507E+00  0.2596E+02
  -0.030  0.3998E+00  0.2596E+02
  -0.020  0.3573E+00  0.2597E+02
  -0.010  0.3232E+00  0.2597E+02
   0.000  0.2963E+00  0.2597E+02
   0.010  0.2715E+00  0.2598E+02
   0.020  0.2481E+00  0.2598E+02
   0.030  0.2260E+00  0.2598E+02
   0.040  0.2053E+00  0.2598E+02
   0.050  0.1860E+00  0.2599E+02
   0.060  0.1680E+00  0.2599E+02
   0.070  0.1514E+00  0.2599E+02
   0.080  0.1362E+00  0.2599E+02
   0.090  0.1223E+00  0.2599E+02
   0.100  0.1098E+00  0.2599E+02
   0.110  0.9861E-01  0.2599E+02
   0.120  0.8882E-01  0.2599E+02
   0.130  0.7997E-01  0.2600E+02
   0.140  0.7120E-01  0.2600E+02
   0.150  0.6293E-01  0.2600E+02
   0.160  0.5517E-01  0.2600E+02
   0.170  0.4793E-01  0.2600E+02
   0.180  0.4119E-01  0.2600E+02
   0.190  0.3496E-01  0.2600E+02
   0.200  0.2925E-01  0.2600E+02
   0.210  0.2404E-01  0.2600E+02
   0.220  0.1934E-01  0.2600E+02
   0.230  0.1515E-01  0.2600E+02
   0.240  0.1148E-01  0.2600E+02
   0.250  0.8311E-02  0.2600E+02
   0.260  0.5654E-02  0.2600E+02
   0.270  0.3508E-02  0.2600E+02
   0.280  0.1871E-02  0.2600E+02
   0.290  0.7446E-03  0.2600E+02
   0.300  0.1281E-03  0.2600E+02
   0.310  0.0000E+00  0.2600E+02
   0.320  0.0000E+00  0.2600E+02
   0.330  0.0000E+00  0.2600E+02
   0.340  0.0000E+00  0.2600E+02
   0.350  0.0000E+00  0.2600E+02
   0.360  0.0000E+00  0.2600E+02
   0.370  0.0000E+00  0.2600E+02
   0.380  0.0000E+00  0.2600E+02
   0.390  0.0000E+00  0.2600E+02
   0.400  0.0000E+00  0.2600E+02
   0.410  0.0000E+00  0.2600E+02
   0.420  0.0000E+00  0.2600E+02
   0.430  0.0000E+00  0.2600E+02
   0.440  0.0000E+00  0.2600E+02
   0.450  0.0000E+00  0.2600E+02
   0.460  0.0000E+00  0.2600E+02
   0.470  0.0000E+00  0.2600E+02
   0.480  0.0000E+00  0.2600E+02
   0.490  0.0000E+00  0.2600E+02
   0.500  0.0000E+00  0.2600E+02
   0.510  0.0000E+00  0.2600E+02
   0.520  0.0000E+00  0.2600E+02
   0.530  0.0000E+00  0.2600E+02
   0.540  0.0000E+00  0.2600E+02
   0.550  0.0000E+00  0.2600E+02
   0.560  0.0000E+00  0.2600E+02
   0.570  0.0000E+00  0.2600E+02
   0.580  0.0000E+00  0.2600E+02
   0.590  0.0000E+00  0.2600E+02
   0.600  0.0000E+00  0.2600E+02
   0.610  0.0000E+00  0.2600E+02
   0.620  0.0000E+00  0.2600E+02
   0.630  0.0000E+00  0.2600E+02
   0.640  0.0000E+00  0.2600E+02
   0.650  0.0000E+00  0.2600E+02
   0.660  0.0000E+00  0.2600E+02
   0.670  0.0000E+00  0.2600E+02
   0.680  0.0000E+00  0.2600E+02
   0.690  0.0000E+00  0.2600E+02
   0.700  0.0000E+00  0.2600E+02
   0.710  0.0000E+00  0.2600E+02
   0.720  0.0000E+00  0.2600E+02
   0.730  0.0000E+00  0.2600E+02
   0.740  0.0000E+00  0.2600E+02
   0.750  0.0000E+00  0.2600E+02
   0.760  0.0000E+00  0.2600E+02
   0.770  0.0000E+00  0.2600E+02
   0.780  0.0000E+00  0.2600E+02
   0.790  0.0000E+00  0.2600E+02
   0.800  0.0000E+00  0.2600E+02
   0.810  0.0000E+00  0.2600E+02
   0.820  0.0000E+00  0.2600E+02
   0.830  0.0000E+00  0.2600E+02
   0.840  0.0000E+00  0.2600E+02
   0.850  0.0000E+00  0.2600E+02
   0.860  0.0000E+00  0.2600E+02
   0.870  0.0000E+00  0.2600E+02
   0.880  0.0000E+00  0.2600E+02
   0.890  0.0000E+00  0.2600E+02
   0.900  0.0000E+00  0.2600E+02
   0.910  0.0000E+00  0.2600E+02
   0.920  0.0000E+00  0.2600E+02
   0.930  0.0000E+00  0.2600E+02
   0.940  0.0000E+00  0.2600E+02
   0.950  0.0000E+00  0.2600E+02
   0.960  0.0000E+00  0.2600E+02
   0.970  0.0000E+00  0.2600E+02
   0.980  0.0000E+00  0.2600E+02
   0.990  0.0000E+00  0.2600E+02
   1.000  0.0000E+00  0.2600E+02
   1.010  0.0000E+00  0.2600E+02
   1.020  0.0000E+00  0.2600E+02
   1.030  0.0000E+00  0.2600E+02
   1.040  0.0000E+00  0.2600E+02
   1.050  0.0000E+00  0.2600E+02
   1.060  0.0000E+00  0.2600E+02
   1.070  0.0000E+00  0.2600E+02
   1.080  0.0000E+00  0.2600E+02
   1.090  0.0000E+00  0.2600E+02
   1.100  0.0000E+00  0.2600E+02
   1.110  0.0000E+00  0.2600E+02
   1.120  0.0000E+00  0.2600E+02
   1.130  0.0000E+00  0.2600E+02
   1.140  0.0000E+00  0.2600E+02
   1.150  0.0000E+00  0.2600E+02
   1.160  0.0000E+00  0.2600E+02
   1.170  0.0000E+00  0.2600E+02
   1.180  0.0000E+00  0.2600E+02
   1.190  0.0000E+00  0.2600E+02
   1.200  0.0000E+00  0.2600E+02
   1.210  0.0000E+00  0.2600E+02
   1.220  0.0000E+00  0.2600E+02
   1.230  0.0000E+00  0.2600E+02
   1.240  0.0000E+00  0.2600E+02
   1.250  0.0000E+00  0.2600E+02
   1.260  0.0000E+00  0.2600E+02
   1.270  0.0000E+00  0.2600E+02
   1.280  0.0000E+00  0.2600E+02
   1.290  0.0000E+00  0.2600E+02
   1.300  0.0000E+00  0.2600E+02
   1.310  0.0000E+00  0.2600E+02
   1.320  0.0000E+00  0.2600E+02
   1.330  0.0000E+00  0.2600E+02
   1.340  0.0000E+00  0.2600E+02
   1.350  0.0000E+00  0.2600E+02
   1.360  0.0000E+00  0.2600E+02
   1.370  0.0000E+00  0.2600E+02
   1.380  0.0000E+00  0.2600E+02
   1.390  0.0000E+00  0.2600E+02
   1.400  0.0000E+00  0.2600E+02
   1.410  0.0000E+00  0.2600E+02
   1.420  0.0000E+00  0.2600E+02
   1.430  0.0000E+00  0.2600E+02
   1.440  0.0000E+00  0.2600E+02
   1.450  0.0000E+00  0.2600E+02
   1.460  0.0000E+00  0.2600E+02
   1.470  0.0000E+00  0.2600E+02
   1.480  0.0000E+00  0.2600E+02
   1.490  0.0000E+00  0.2600E+02
   1.500  0.0000E+00  0.2600E+02
   1.510  0.0000E+00  0.2600E+02
   1.520  0.0000E+00  0.2600E+02
   1.530  0.0000E+00  0.2600E+02
   1.540  0.0000E+00  0.2600E+02
   1.550  0.0000E+00  0.2600E+02
   1.560  0.0000E+00  0.2600E+02
   1.570  0.0000E+00  0.2600E+02
   1.580  0.0000E+00  0.2600E+02
   1.590  0.0000E+00  0.2600E+02
   1.600  0.0000E+00  0.2600E+02
   1.610  0.0000E+00  0.2600E+02
   1.620  0.0000E+00  0.2600E+02
   1.630  0.0000E+00  0.2600E+02
   1.640  0.0000E+00  0.2600E+02
   1.650  0.0000E+00  0.2600E+02
   1.660  0.0000E+00  0.2600E+02
   1.670  0.0000E+00  0.2600E+02
   1.680  0.0000E+00  0.2600E+02
   1.690  0.0000E+00  0.2600E+02
   1.700  0.0000E+00  0.2600E+02
   1.710  0.0000E+00  0.2600E+02
   1.720  0.0000E+00  0.2600E+02
   1.730  0.0000E+00  0.2600E+02
   1.740  0.0000E+00  0.2600E+02
   1.750  0.0000E+00  0.2600E+02
   1.760  0.0000E+00  0.2600E+02
   1.770  0.0000E+00  0.2600E+02
   1.780  0.0000E+00  0.2600E+02
   1.790  0.0000E+00  0.2600E+02
   1.800  0.0000E+00  0.2600E+02
   1.810  0.0000E+00  0.2600E+02
   1.820  0.0000E+00  0.2600E+02
   1.830  0.0000E+00  0.2600E+02
   1.840  0.0000E+00  0.2600E+02
   1.850  0.0000E+00  0.2600E+02
   1.860  0.0000E+00  0.2600E+02
   1.870  0.0000E+00  0.2600E+02
   1.880  0.0000E+00  0.2600E+02
   1.890  0.0000E+00  0.2600E+02
   1.900  0.0000E+00  0.2600E+02
   1.910  0.0000E+00  0.2600E+02
   1.920  0.0000E+00  0.2600E+02
   1.930  0.0000E+00  0.2600E+02
   1.940  0.0000E+00  0.2600E+02
   1.950  0.0000E+00  0.2600E+02
   1.960  0.0000E+00  0.2600E+02
   1.970  0.0000E+00  0.2600E+02
   1.980  0.0000E+00  0.2600E+02
   1.990  0.0000E+00  0.2600E+02
   2.000  0.0000E+00  0.2600E+02
   2.010  0.0000E+00  0.2600E+02
   2.020  0.0000E+00  0.2600E+02
   2.030  0.5176E-02  0.2600E+02
   2.040  0.2396E-01  0.2600E+02
   2.050  0.5646E-01  0.2600E+02
   2.060  0.1027E+00  0.2600E+02
   2.070  0.1626E+00  0.2600E+02
   2.080  0.2363E+00  0.2600E+02
   2.090  0.3099E+00  0.2601E+02
   2.100  0.3612E+00  0.2601E+02
   2.110  0.3904E+00  0.2601E+02
   2.120  0.3976E+00  0.2602E+02
   2.130  0.3828E+00  0.2602E+02
   2.140  0.3459E+00  0.2603E+02
   2.150  0.3599E+00  0.2603E+02
   2.160  0.3805E+00  0.2603E+02
   2.170  0.4025E+00  0.2604E+02
   2.180  0.4258E+00  0.2604E+02
   2.190  0.4506E+00  0.2605E+02
   2.200  0.4767E+00  0.2605E+02
   2.210  0.5041E+00  0.2606E+02
   2.220  0.5330E+00  0.2606E+02
   2.230  0.5639E+00  0.2607E+02
   2.240  0.5972E+00  0.2607E+02
   2.250  0.6331E+00  0.2608E+02
   2.260  0.6715E+00  0.2608E+02
   2.270  0.7124E+00  0.2609E+02
   2.280  0.7505E+00  0.2610E+02
   2.290  0.7897E+00  0.2611E+02
   2.300  0.8307E+00  0.2611E+02
   2.310  0.8734E+00  0.2612E+02
   2.320  0.9180E+00  0.2613E+02
   2.330  0.9643E+00  0.2614E+02
   2.340  0.1012E+01  0.2615E+02
   2.350  0.1072E+01  0.2616E+02
   2.360  0.1166E+01  0.2617E+02
   2.370  0.1294E+01  0.2619E+02
   2.380  0.1456E+01  0.2620E+02
   2.390  0.1642E+01  0.2621E+02
   2.400  0.1714E+01  0.2623E+02
   2.410  0.1732E+01  0.2625E+02
   2.420  0.1695E+01  0.2627E+02
   2.430  0.1603E+01  0.2628E+02
   2.440  0.1573E+01  0.2630E+02
   2.450  0.1633E+01  0.2631E+02
   2.460  0.1692E+01  0.2633E+02
   2.470  0.1750E+01  0.2635E+02
   2.480  0.1806E+01  0.2637E+02
   2.490  0.1861E+01  0.2638E+02
   2.500  0.1915E+01  0.2640E+02
   2.510  0.1968E+01  0.2642E+02
   2.520  0.2021E+01  0.2644E+02
   2.530  0.2072E+01  0.2646E+02
   2.540  0.2123E+01  0.2648E+02
   2.550  0.2171E+01  0.2650E+02
   2.560  0.2218E+01  0.2653E+02
   2.570  0.2263E+01  0.2655E+02
   2.580  0.2307E+01  0.2657E+02
   2.590  0.2348E+01  0.2660E+02
   2.600  0.2390E+01  0.2662E+02
   2.610  0.2437E+01  0.2664E+02
   2.620  0.2541E+01  0.2667E+02
   2.630  0.2666E+01  0.2669E+02
   2.640  0.2793E+01  0.2672E+02
   2.650  0.2877E+01  0.2675E+02
   2.660  0.2919E+01  0.2678E+02
   2.670  0.2929E+01  0.2681E+02
   2.680  0.2917E+01  0.2684E+02
   2.690  0.2890E+01  0.2687E+02
   2.700  0.2864E+01  0.2689E+02
   2.710  0.2844E+01  0.2692E+02
   2.720  0.2833E+01  0.2695E+02
   2.730  0.2828E+01  0.2698E+02
   2.740  0.2831E+01  0.2701E+02
   2.750  0.2842E+01  0.2704E+02
   2.760  0.2858E+01  0.2707E+02
   2.770  0.2846E+01  0.2709E+02
   2.780  0.2825E+01  0.2712E+02
   2.790  0.2796E+01  0.2715E+02
   2.800  0.2762E+01  0.2718E+02
   2.810  0.2722E+01  0.2721E+02
   2.820  0.2677E+01  0.2723E+02
   2.830  0.2644E+01  0.2726E+02
   2.840  0.2630E+01  0.2729E+02
   2.850  0.2613E+01  0.2731E+02
   2.860  0.2594E+01  0.2734E+02
   2.870  0.2617E+01  0.2736E+02
   2.880  0.2677E+01  0.2739E+02
   2.890  0.2718E+01  0.2742E+02
   2.900  0.2742E+01  0.2744E+02
   2.910  0.2693E+01  0.2747E+02
   2.920  0.2526E+01  0.2750E+02
   2.930  0.2373E+01  0.2752E+02
   2.940  0.2250E+01  0.2755E+02
   2.950  0.2159E+01  0.2757E+02
   2.960  0.2101E+01  0.2759E+02
   2.970  0.2069E+01  0.2761E+02
   2.980  0.2037E+01  0.2763E+02
   2.990  0.2004E+01  0.2765E+02
   3.000  0.1934E+01  0.2767E+02
   3.010  0.1828E+01  0.2769E+02
   3.020  0.1713E+01  0.2771E+02
   3.030  0.1588E+01  0.2772E+02
   3.040  0.1536E+01  0.2774E+02
   3.050  0.1509E+01  0.2775E+02
   3.060  0.1484E+01  0.2777E+02
   3.070  0.1459E+01  0.2778E+02
   3.080  0.1436E+01  0.2780E+02
   3.090  0.1413E+01  0.2781E+02
   3.100  0.1389E+01  0.2783E+02
   3.110  0.1364E+01  0.2784E+02
   3.120  0.1338E+01  0.2785E+02
   3.130  0.1321E+01  0.2787E+02
   3.140  0.1311E+01  0.2788E+02
   3.150  0.1310E+01  0.2789E+02
   3.160  0.1310E+01  0.2791E+02
   3.170  0.1310E+01  0.2792E+02
   3.180  0.1310E+01  0.2793E+02
   3.190  0.1310E+01  0.2795E+02
   3.200  0.1310E+01  0.2796E+02
   3.210  0.1310E+01  0.2797E+02
   3.220  0.1310E+01  0.2798E+02
   3.230  0.1310E+01  0.2800E+02
   3.240  0.1310E+01  0.2801E+02
   3.250  0.1310E+01  0.2802E+02
   3.260  0.1310E+01  0.2804E+02
   3.270  0.1310E+01  0.2805E+02
   3.280  0.1311E+01  0.2806E+02
   3.290  0.1311E+01  0.2808E+02
   3.300  0.1311E+01  0.2809E+02
   3.310  0.1311E+01  0.2810E+02
   3.320  0.1311E+01  0.2812E+02
   3.330  0.1311E+01  0.2813E+02
   3.340  0.1311E+01  0.2814E+02
   3.350  0.1311E+01  0.2816E+02
   3.360  0.1311E+01  0.2817E+02
   3.370  0.1312E+01  0.2818E+02
   3.380  0.1314E+01  0.2819E+02
   3.390  0.1317E+01  0.2821E+02
   3.400  0.1321E+01  0.2822E+02
   3.410  0.1326E+01  0.2823E+02
   3.420  0.1333E+01  0.2825E+02
   3.430  0.1340E+01  0.2826E+02
   3.440  0.1348E+01  0.2827E+02
   3.450  0.1358E+01  0.2829E+02
   3.460  0.1368E+01  0.2830E+02
   3.470  0.1380E+01  0.2832E+02
   3.480  0.1392E+01  0.2833E+02
   3.490  0.1406E+01  0.2834E+02
   3.500  0.1421E+01  0.2836E+02
   3.510  0.1438E+01  0.2837E+02
   3.520  0.1455E+01  0.2839E+02
   3.530  0.1471E+01  0.2840E+02
   3.540  0.1485E+01  0.2842E+02
   3.550  0.1499E+01  0.2843E+02
   3.560  0.1512E+01  0.2845E+02
   3.570  0.1523E+01  0.2846E+02
   3.580  0.1533E+01  0.2848E+02
   3.590  0.1542E+01  0.2849E+02
   3.600  0.1550E+01  0.2851E+02
   3.610  0.1557E+01  0.2852E+02
   3.620  0.1563E+01  0.2854E+02
   3.630  0.1567E+01  0.2855E+02
   3.640  0.1570E+01  0.2857E+02
   3.650  0.1571E+01  0.2858E+02
   3.660  0.1574E+01  0.2860E+02
   3.670  0.1577E+01  0.2862E+02
   3.680  0.1582E+01  0.2863E+02
   3.690  0.1587E+01  0.2865E+02
   3.700  0.1594E+01  0.2866E+02
   3.710  0.1602E+01  0.2868E+02
   3.720  0.1611E+01  0.2870E+02
   3.730  0.1621E+01  0.2871E+02
   3.740  0.1692E+01  0.2873E+02
   3.750  0.1831E+01  0.2875E+02
   3.760  0.1960E+01  0.2877E+02
   3.770  0.2058E+01  0.2879E+02
   3.780  0.2076E+01  0.2881E+02
   3.790  0.2087E+01  0.2883E+02
   3.800  0.2092E+01  0.2885E+02
   3.810  0.2090E+01  0.2887E+02
   3.820  0.2084E+01  0.2889E+02
   3.830  0.2084E+01  0.2891E+02
   3.840  0.2093E+01  0.2893E+02
   3.850  0.2147E+01  0.2895E+02
   3.860  0.2231E+01  0.2897E+02
   3.870  0.2316E+01  0.2900E+02
   3.880  0.2405E+01  0.2902E+02
   3.890  0.2499E+01  0.2904E+02
   3.900  0.2597E+01  0.2907E+02
   3.910  0.2699E+01  0.2910E+02
   3.920  0.2799E+01  0.2912E+02
   3.930  0.2762E+01  0.2915E+02
   3.940  0.2724E+01  0.2918E+02
   3.950  0.2710E+01  0.2921E+02
   3.960  0.2828E+01  0.2923E+02
   3.970  0.2947E+01  0.2926E+02
   3.980  0.3061E+01  0.2929E+02
   3.990  0.3170E+01  0.2932E+02
   4.000  0.3160E+01  0.2936E+02
   4.010  0.3234E+01  0.2939E+02
   4.020  0.3456E+01  0.2942E+02
   4.030  0.3521E+01  0.2946E+02
   4.040  0.3355E+01  0.2949E+02
   4.050  0.2956E+01  0.2952E+02
   4.060  0.2409E+01  0.2955E+02
   4.070  0.2144E+01  0.2957E+02
   4.080  0.2154E+01  0.2959E+02
   4.090  0.2163E+01  0.2961E+02
   4.100  0.2170E+01  0.2964E+02
   4.110  0.2175E+01  0.2966E+02
   4.120  0.2178E+01  0.2968E+02
   4.130  0.2180E+01  0.2970E+02
   4.140  0.2180E+01  0.2972E+02
   4.150  0.2050E+01  0.2974E+02
   4.160  0.2000E+01  0.2976E+02
   4.170  0.2102E+01  0.2979E+02
   4.180  0.2156E+01  0.2981E+02
   4.190  0.2162E+01  0.2983E+02
   4.200  0.2140E+01  0.2985E+02
   4.210  0.2118E+01  0.2987E+02
   4.220  0.2096E+01  0.2989E+02
   4.230  0.2075E+01  0.2991E+02
   4.240  0.2053E+01  0.2993E+02
   4.250  0.2032E+01  0.2995E+02
   4.260  0.2011E+01  0.2997E+02
   4.270  0.1991E+01  0.2999E+02
   4.280  0.1971E+01  0.3001E+02
   4.290  0.1951E+01  0.3003E+02
   4.300  0.1931E+01  0.3005E+02
   4.310  0.1912E+01  0.3007E+02
   4.320  0.1895E+01  0.3009E+02
   4.330  0.1881E+01  0.3011E+02
   4.340  0.1871E+01  0.3013E+02
   4.350  0.1870E+01  0.3015E+02
   4.360  0.1880E+01  0.3017E+02
   4.370  0.1900E+01  0.3019E+02
   4.380  0.1924E+01  0.3020E+02
   4.390  0.1951E+01  0.3022E+02
   4.400  0.1981E+01  0.3024E+02
   4.410  0.2013E+01  0.3026E+02
   4.420  0.2052E+01  0.3028E+02
   4.430  0.2096E+01  0.3030E+02
   4.440  0.2136E+01  0.3033E+02
   4.450  0.2172E+01  0.3035E+02
   4.460  0.2204E+01  0.3037E+02
   4.470  0.2232E+01  0.3039E+02
   4.480  0.2257E+01  0.3041E+02
   4.490  0.2277E+01  0.3044E+02
   4.500  0.2293E+01  0.3046E+02
   4.510  0.2296E+01  0.3048E+02
   4.520  0.2298E+01  0.3051E+02
   4.530  0.2310E+01  0.3053E+02
   4.540  0.2333E+01  0.3055E+02
   4.550  0.2371E+01  0.3057E+02
   4.560  0.2425E+01  0.3060E+02
   4.570  0.2488E+01  0.3062E+02
   4.580  0.2555E+01  0.3065E+02
   4.590  0.2631E+01  0.3067E+02
   4.600  0.2717E+01  0.3070E+02
   4.610  0.2813E+01  0.3073E+02
   4.620  0.2919E+01  0.3076E+02
   4.630  0.3034E+01  0.3079E+02
   4.640  0.3159E+01  0.3082E+02
   4.650  0.3294E+01  0.3085E+02
   4.660  0.3429E+01  0.3088E+02
   4.670  0.3557E+01  0.3092E+02
   4.680  0.3726E+01  0.3096E+02
   4.690  0.3937E+01  0.3099E+02
   4.700  0.4175E+01  0.3103E+02
   4.710  0.4418E+01  0.3108E+02
   4.720  0.5732E+01  0.3113E+02
   4.730  0.5225E+01  0.3118E+02
   4.740  0.5188E+01  0.3123E+02
   4.750  0.5001E+01  0.3128E+02
   4.760  0.5037E+01  0.3133E+02
   4.770  0.5068E+01  0.3139E+02
   4.780  0.5098E+01  0.3144E+02
   4.790  0.5128E+01  0.3149E+02
   4.800  0.5158E+01  0.3154E+02
   4.810  0.5186E+01  0.3159E+02
   4.820  0.5203E+01  0.3164E+02
   4.830  0.5196E+01  0.3169E+02
   4.840  0.5199E+01  0.3175E+02
   4.850  0.5204E+01  0.3180E+02
   4.860  0.5197E+01  0.3185E+02
   4.870  0.5222E+01  0.3190E+02
   4.880  0.5288E+01  0.3195E+02
   4.890  0.5377E+01  0.3201E+02
   4.900  0.5481E+01  0.3206E+02
   4.910  0.5598E+01  0.3212E+02
   4.920  0.5810E+01  0.3217E+02
   4.930  0.6101E+01  0.3223E+02
   4.940  0.6440E+01  0.3230E+02
   4.950  0.6825E+01  0.3236E+02
   4.960  0.7195E+01  0.3243E+02
   4.970  0.7029E+01  0.3250E+02
   4.980  0.6746E+01  0.3257E+02
   4.990  0.6666E+01  0.3264E+02
   5.000  0.6672E+01  0.3271E+02
   5.010  0.6770E+01  0.3277E+02
   5.020  0.6633E+01  0.3284E+02
   5.030  0.6644E+01  0.3291E+02
   5.040  0.6614E+01  0.3297E+02
   5.050  0.6238E+01  0.3304E+02
   5.060  0.5913E+01  0.3310E+02
   5.070  0.5791E+01  0.3316E+02
   5.080  0.5804E+01  0.3322E+02
   5.090  0.5876E+01  0.3327E+02
   5.100  0.6008E+01  0.3333E+02
   5.110  0.6187E+01  0.3339E+02
   5.120  0.6412E+01  0.3346E+02
   5.130  0.6477E+01  0.3352E+02
   5.140  0.6825E+01  0.3359E+02
   5.150  0.6924E+01  0.3366E+02
   5.160  0.7015E+01  0.3373E+02
   5.170  0.7096E+01  0.3380E+02
   5.180  0.7190E+01  0.3387E+02
   5.190  0.7287E+01  0.3394E+02
   5.200  0.7347E+01  0.3402E+02
   5.210  0.7289E+01  0.3409E+02
   5.220  0.7064E+01  0.3416E+02
   5.230  0.6667E+01  0.3423E+02
   5.240  0.6235E+01  0.3429E+02
   5.250  0.5961E+01  0.3435E+02
   5.260  0.5923E+01  0.3441E+02
   5.270  0.5958E+01  0.3447E+02
   5.280  0.5965E+01  0.3453E+02
   5.290  0.5930E+01  0.3459E+02
   5.300  0.6245E+01  0.3466E+02
   5.310  0.5670E+01  0.3472E+02
   5.320  0.5533E+01  0.3477E+02
   5.330  0.5523E+01  0.3483E+02
   5.340  0.5669E+01  0.3488E+02
   5.350  0.5858E+01  0.3494E+02
   5.360  0.6127E+01  0.3500E+02
   5.370  0.6495E+01  0.3506E+02
   5.380  0.6929E+01  0.3513E+02
   5.390  0.7519E+01  0.3520E+02
   5.400  0.9505E+01  0.3528E+02
   5.410  0.1074E+02  0.3539E+02
   5.420  0.1202E+02  0.3550E+02
   5.430  0.1102E+02  0.3562E+02
   5.440  0.1080E+02  0.3573E+02
   5.450  0.1083E+02  0.3583E+02
   5.460  0.1097E+02  0.3594E+02
   5.470  0.1098E+02  0.3605E+02
   5.480  0.1089E+02  0.3616E+02
   5.490  0.1063E+02  0.3627E+02
   5.500  0.1098E+02  0.3638E+02
   5.510  0.1088E+02  0.3649E+02
   5.520  0.1099E+02  0.3660E+02
   5.530  0.1090E+02  0.3671E+02
   5.540  0.1076E+02  0.3681E+02
   5.550  0.1087E+02  0.3692E+02
   5.560  0.1105E+02  0.3703E+02
   5.570  0.1171E+02  0.3714E+02
   5.580  0.1303E+02  0.3727E+02
   5.590  0.1209E+02  0.3740E+02
   5.600  0.1122E+02  0.3752E+02
   5.610  0.1035E+02  0.3763E+02
   5.620  0.9540E+01  0.3773E+02
   5.630  0.8765E+01  0.3782E+02
   5.640  0.8099E+01  0.3790E+02
   5.650  0.7988E+01  0.3798E+02
   5.660  0.7980E+01  0.3806E+02
   5.670  0.7941E+01  0.3814E+02
   5.680  0.7894E+01  0.3822E+02
   5.690  0.7849E+01  0.3830E+02
   5.700  0.7796E+01  0.3838E+02
   5.710  0.8136E+01  0.3845E+02
   5.720  0.8367E+01  0.3854E+02
   5.730  0.7865E+01  0.3862E+02
   5.740  0.7412E+01  0.3870E+02
   5.750  0.7330E+01  0.3877E+02
   5.760  0.7310E+01  0.3884E+02
   5.770  0.7283E+01  0.3892E+02
   5.780  0.7220E+01  0.3899E+02
   5.790  0.7308E+01  0.3906E+02
   5.800  0.7242E+01  0.3913E+02
   5.810  0.7052E+01  0.3920E+02
   5.820  0.6914E+01  0.3927E+02
   5.830  0.6862E+01  0.3934E+02
   5.840  0.6917E+01  0.3941E+02
   5.850  0.7252E+01  0.3948E+02
   5.860  0.7405E+01  0.3956E+02
   5.870  0.7614E+01  0.3963E+02
   5.880  0.7885E+01  0.3971E+02
   5.890  0.7883E+01  0.3979E+02
   5.900  0.7885E+01  0.3987E+02
   5.910  0.7900E+01  0.3995E+02
   5.920  0.7865E+01  0.4002E+02
   5.930  0.7780E+01  0.4010E+02
   5.940  0.7649E+01  0.4018E+02
   5.950  0.7431E+01  0.4026E+02
   5.960  0.7130E+01  0.4033E+02
   5.970  0.6763E+01  0.4040E+02
   5.980  0.6343E+01  0.4046E+02
   5.990  0.5871E+01  0.4052E+02
   6.000  0.5288E+01  0.4058E+02
   6.010  0.4653E+01  0.4063E+02
   6.020  0.4204E+01  0.4067E+02
   6.030  0.3940E+01  0.4072E+02
   6.040  0.3934E+01  0.4075E+02
   6.050  0.3998E+01  0.4079E+02
   6.060  0.4174E+01  0.4083E+02
   6.070  0.4559E+01  0.4088E+02
   6.080  0.5183E+01  0.4093E+02
   6.090  0.5826E+01  0.4098E+02
   6.100  0.6486E+01  0.4104E+02
   6.110  0.7172E+01  0.4111E+02
   6.120  0.7886E+01  0.4119E+02
   6.130  0.8613E+01  0.4127E+02
   6.140  0.9362E+01  0.4136E+02
   6.150  0.1021E+02  0.4146E+02
   6.160  0.1154E+02  0.4157E+02
   6.170  0.1123E+02  0.4168E+02
   6.180  0.1185E+02  0.4179E+02
   6.190  0.1209E+02  0.4191E+02
   6.200  0.1185E+02  0.4203E+02
   6.210  0.1115E+02  0.4215E+02
   6.220  0.1090E+02  0.4226E+02
   6.230  0.8629E+01  0.4235E+02
   6.240  0.8064E+01  0.4244E+02
   6.250  0.7693E+01  0.4252E+02
   6.260  0.7526E+01  0.4259E+02
   6.270  0.7598E+01  0.4267E+02
   6.280  0.7421E+01  0.4274E+02
   6.290  0.7211E+01  0.4282E+02
   6.300  0.7003E+01  0.4289E+02
   6.310  0.6798E+01  0.4296E+02
   6.320  0.6545E+01  0.4302E+02
   6.330  0.6169E+01  0.4309E+02
   6.340  0.5790E+01  0.4315E+02
   6.350  0.5533E+01  0.4320E+02
   6.360  0.5255E+01  0.4326E+02
   6.370  0.4929E+01  0.4331E+02
   6.380  0.4538E+01  0.4336E+02
   6.390  0.4090E+01  0.4340E+02
   6.400  0.3752E+01  0.4344E+02
   6.410  0.3615E+01  0.4347E+02
   6.420  0.4115E+01  0.4351E+02
   6.430  0.5136E+01  0.4356E+02
   6.440  0.5929E+01  0.4361E+02
   6.450  0.6246E+01  0.4368E+02
   6.460  0.6186E+01  0.4374E+02
   6.470  0.6032E+01  0.4380E+02
   6.480  0.5993E+01  0.4386E+02
   6.490  0.6012E+01  0.4392E+02
   6.500  0.6095E+01  0.4398E+02
   6.510  0.6247E+01  0.4404E+02
   6.520  0.6442E+01  0.4410E+02
   6.530  0.6929E+01  0.4417E+02
   6.540  0.6300E+01  0.4424E+02
   6.550  0.6199E+01  0.4431E+02
   6.560  0.6076E+01  0.4437E+02
   6.570  0.5892E+01  0.4443E+02
   6.580  0.5624E+01  0.4449E+02
   6.590  0.5304E+01  0.4454E+02
   6.600  0.4979E+01  0.4459E+02
   6.610  0.4662E+01  0.4464E+02
   6.620  0.4380E+01  0.4468E+02
   6.630  0.4094E+01  0.4473E+02
   6.640  0.3835E+01  0.4477E+02
   6.650  0.3607E+01  0.4480E+02
   6.660  0.3408E+01  0.4484E+02
   6.670  0.3240E+01  0.4487E+02
   6.680  0.3091E+01  0.4490E+02
   6.690  0.2939E+01  0.4493E+02
   6.700  0.2799E+01  0.4496E+02
   6.710  0.2671E+01  0.4499E+02
   6.720  0.2553E+01  0.4502E+02
   6.730  0.2447E+01  0.4504E+02
   6.740  0.2352E+01  0.4506E+02
   6.750  0.2269E+01  0.4509E+02
   6.760  0.2193E+01  0.4511E+02
   6.770  0.2124E+01  0.4513E+02
   6.780  0.2066E+01  0.4515E+02
   6.790  0.2019E+01  0.4517E+02
   6.800  0.1986E+01  0.4519E+02
   6.810  0.1965E+01  0.4521E+02
   6.820  0.1955E+01  0.4523E+02
   6.830  0.1955E+01  0.4525E+02
   6.840  0.1960E+01  0.4527E+02
   6.850  0.1970E+01  0.4529E+02
   6.860  0.1985E+01  0.4531E+02
   6.870  0.2021E+01  0.4533E+02
   6.880  0.2082E+01  0.4535E+02
   6.890  0.2164E+01  0.4537E+02
   6.900  0.2247E+01  0.4539E+02
   6.910  0.2304E+01  0.4542E+02
   6.920  0.2334E+01  0.4544E+02
   6.930  0.2337E+01  0.4546E+02
   6.940  0.2319E+01  0.4549E+02
   6.950  0.2359E+01  0.4551E+02
   6.960  0.2408E+01  0.4553E+02
   6.970  0.2663E+01  0.4556E+02
   6.980  0.2878E+01  0.4559E+02
   6.990  0.3048E+01  0.4562E+02
   7.000  0.3174E+01  0.4565E+02
   7.010  0.3255E+01  0.4568E+02
   7.020  0.3421E+01  0.4571E+02
   7.030  0.3562E+01  0.4575E+02
   7.040  0.3692E+01  0.4579E+02
   7.050  0.3827E+01  0.4582E+02
   7.060  0.3970E+01  0.4586E+02
   7.070  0.4118E+01  0.4590E+02
   7.080  0.4274E+01  0.4594E+02
   7.090  0.4436E+01  0.4599E+02
   7.100  0.4605E+01  0.4603E+02
   7.110  0.4780E+01  0.4608E+02
   7.120  0.5013E+01  0.4613E+02
   7.130  0.5135E+01  0.4618E+02
   7.140  0.5096E+01  0.4623E+02
   7.150  0.5073E+01  0.4628E+02
   7.160  0.5072E+01  0.4633E+02
   7.170  0.5096E+01  0.4638E+02
   7.180  0.5144E+01  0.4643E+02
   7.190  0.5206E+01  0.4649E+02
   7.200  0.5267E+01  0.4654E+02
   7.210  0.5329E+01  0.4659E+02
   7.220  0.5388E+01  0.4665E+02
   7.230  0.5459E+01  0.4670E+02
   7.240  0.5543E+01  0.4675E+02
   7.250  0.5640E+01  0.4681E+02
   7.260  0.5751E+01  0.4687E+02
   7.270  0.5877E+01  0.4693E+02
   7.280  0.6017E+01  0.4698E+02
   7.290  0.6119E+01  0.4705E+02
   7.300  0.6215E+01  0.4711E+02
   7.310  0.6412E+01  0.4717E+02
   7.320  0.6530E+01  0.4724E+02
   7.330  0.6653E+01  0.4730E+02
   7.340  0.6772E+01  0.4737E+02
   7.350  0.6862E+01  0.4744E+02
   7.360  0.7050E+01  0.4751E+02
   7.370  0.7347E+01  0.4758E+02
   7.380  0.6796E+01  0.4766E+02
   7.390  0.6851E+01  0.4772E+02
   7.400  0.6914E+01  0.4779E+02
   7.410  0.6978E+01  0.4786E+02
   7.420  0.7039E+01  0.4793E+02
   7.430  0.7100E+01  0.4800E+02
   7.440  0.7158E+01  0.4807E+02
   7.450  0.7229E+01  0.4815E+02
   7.460  0.7308E+01  0.4822E+02
   7.470  0.7329E+01  0.4829E+02
   7.480  0.7435E+01  0.4837E+02
   7.490  0.7627E+01  0.4844E+02
   7.500  0.7794E+01  0.4852E+02
   7.510  0.7619E+01  0.4860E+02
   7.520  0.7921E+01  0.4867E+02
   7.530  0.7825E+01  0.4875E+02
   7.540  0.6646E+01  0.4882E+02
   7.550  0.6584E+01  0.4889E+02
   7.560  0.6589E+01  0.4895E+02
   7.570  0.8553E+01  0.4902E+02
   7.580  0.7266E+01  0.4910E+02
   7.590  0.7016E+01  0.4917E+02
   7.600  0.6749E+01  0.4924E+02
   7.610  0.6472E+01  0.4931E+02
   7.620  0.6203E+01  0.4937E+02
   7.630  0.5933E+01  0.4943E+02
   7.640  0.5152E+01  0.4949E+02
   7.650  0.4963E+01  0.4954E+02
   7.660  0.4813E+01  0.4959E+02
   7.670  0.4674E+01  0.4963E+02
   7.680  0.4549E+01  0.4968E+02
   7.690  0.4442E+01  0.4972E+02
   7.700  0.4354E+01  0.4977E+02
   7.710  0.4282E+01  0.4981E+02
   7.720  0.4224E+01  0.4985E+02
   7.730  0.4181E+01  0.4990E+02
   7.740  0.4180E+01  0.4994E+02
   7.750  0.4261E+01  0.4998E+02
   7.760  0.4369E+01  0.5002E+02
   7.770  0.4486E+01  0.5007E+02
   7.780  0.5444E+01  0.5012E+02
   7.790  0.4588E+01  0.5017E+02
   7.800  0.4532E+01  0.5021E+02
   7.810  0.4457E+01  0.5026E+02
   7.820  0.4369E+01  0.5030E+02
   7.830  0.4392E+01  0.5035E+02
   7.840  0.4474E+01  0.5039E+02
   7.850  0.5242E+01  0.5044E+02
   7.860  0.6901E+01  0.5050E+02
   7.870  0.6788E+01  0.5057E+02
   7.880  0.6167E+01  0.5063E+02
   7.890  0.5449E+01  0.5069E+02
   7.900  0.4626E+01  0.5074E+02
   7.910  0.3625E+01  0.5078E+02
   7.920  0.3086E+01  0.5082E+02
   7.930  0.2925E+01  0.5085E+02
   7.940  0.2808E+01  0.5088E+02
   7.950  0.2737E+01  0.5090E+02
   7.960  0.2712E+01  0.5093E+02
   7.970  0.2731E+01  0.5096E+02
   7.980  0.2789E+01  0.5099E+02
   7.990  0.2856E+01  0.5101E+02
   8.000  0.2932E+01  0.5104E+02
   8.010  0.3016E+01  0.5107E+02
   8.020  0.3955E+01  0.5111E+02
   8.030  0.4905E+01  0.5115E+02
   8.040  0.4982E+01  0.5120E+02
   8.050  0.5232E+01  0.5125E+02
   8.060  0.6120E+01  0.5131E+02
   8.070  0.8433E+01  0.5138E+02
   8.080  0.5166E+01  0.5145E+02
   8.090  0.4006E+01  0.5149E+02
   8.100  0.3896E+01  0.5153E+02
   8.110  0.3799E+01  0.5157E+02
   8.120  0.3694E+01  0.5161E+02
   8.130  0.3636E+01  0.5165E+02
   8.140  0.3615E+01  0.5168E+02
   8.150  0.3591E+01  0.5172E+02
   8.160  0.3600E+01  0.5175E+02
   8.170  0.3654E+01  0.5179E+02
   8.180  0.3961E+01  0.5183E+02
   8.190  0.4407E+01  0.5187E+02
   8.200  0.4963E+01  0.5192E+02
   8.210  0.5637E+01  0.5197E+02
   8.220  0.6396E+01  0.5203E+02
   8.230  0.7131E+01  0.5210E+02
   8.240  0.7460E+01  0.5217E+02
   8.250  0.8286E+01  0.5225E+02
   8.260  0.8452E+01  0.5233E+02
   8.270  0.8402E+01  0.5242E+02
   8.280  0.8394E+01  0.5250E+02
   8.290  0.8635E+01  0.5259E+02
   8.300  0.8798E+01  0.5267E+02
   8.310  0.8992E+01  0.5276E+02
   8.320  0.9164E+01  0.5285E+02
   8.330  0.9342E+01  0.5294E+02
   8.340  0.9641E+01  0.5304E+02
   8.350  0.9546E+01  0.5314E+02
   8.360  0.9131E+01  0.5323E+02
   8.370  0.8446E+01  0.5332E+02
   8.380  0.7836E+01  0.5340E+02
   8.390  0.7332E+01  0.5347E+02
   8.400  0.7234E+01  0.5355E+02
   8.410  0.7447E+01  0.5362E+02
   8.420  0.6992E+01  0.5370E+02
   8.430  0.6694E+01  0.5377E+02
   8.440  0.6644E+01  0.5383E+02
   8.450  0.6724E+01  0.5390E+02
   8.460  0.6754E+01  0.5397E+02
   8.470  0.7053E+01  0.5404E+02
   8.480  0.7808E+01  0.5411E+02
   8.490  0.7494E+01  0.5419E+02
   8.500  0.7378E+01  0.5426E+02
   8.510  0.7374E+01  0.5434E+02
   8.520  0.7401E+01  0.5441E+02
   8.530  0.7416E+01  0.5448E+02
   8.540  0.7193E+01  0.5456E+02
   8.550  0.6814E+01  0.5463E+02
   8.560  0.6417E+01  0.5469E+02
   8.570  0.6102E+01  0.5476E+02
   8.580  0.5799E+01  0.5482E+02
   8.590  0.5511E+01  0.5487E+02
   8.600  0.5247E+01  0.5493E+02
   8.610  0.5023E+01  0.5498E+02
   8.620  0.4812E+01  0.5503E+02
   8.630  0.4618E+01  0.5507E+02
   8.640  0.4442E+01  0.5512E+02
   8.650  0.4285E+01  0.5516E+02
   8.660  0.4146E+01  0.5520E+02
   8.670  0.4050E+01  0.5525E+02
   8.680  0.3971E+01  0.5529E+02
   8.690  0.3903E+01  0.5532E+02
   8.700  0.3840E+01  0.5536E+02
   8.710  0.3785E+01  0.5540E+02
   8.720  0.3738E+01  0.5544E+02
   8.730  0.3695E+01  0.5548E+02
   8.740  0.3656E+01  0.5551E+02
   8.750  0.3620E+01  0.5555E+02
   8.760  0.3588E+01  0.5559E+02
   8.770  0.3559E+01  0.5562E+02
   8.780  0.3540E+01  0.5566E+02
   8.790  0.3541E+01  0.5569E+02
   8.800  0.3563E+01  0.5573E+02
   8.810  0.3727E+01  0.5576E+02
   8.820  0.3503E+01  0.5580E+02
   8.830  0.3298E+01  0.5583E+02
   8.840  0.3112E+01  0.5587E+02
   8.850  0.2945E+01  0.5590E+02
   8.860  0.2796E+01  0.5592E+02
   8.870  0.2664E+01  0.5595E+02
   8.880  0.2552E+01  0.5598E+02
   8.890  0.2461E+01  0.5600E+02
   8.900  0.2447E+01  0.5603E+02
   8.910  0.2504E+01  0.5605E+02
   8.920  0.2573E+01  0.5608E+02
   8.930  0.2707E+01  0.5610E+02
   8.940  0.2869E+01  0.5613E+02
   8.950  0.3047E+01  0.5616E+02
   8.960  0.3241E+01  0.5619E+02
   8.970  0.3452E+01  0.5623E+02
   8.980  0.3678E+01  0.5626E+02
   8.990  0.3938E+01  0.5630E+02
   9.000  0.4346E+01  0.5634E+02
   9.010  0.4663E+01  0.5639E+02
   9.020  0.4959E+01  0.5643E+02
   9.030  0.5186E+01  0.5649E+02
   9.040  0.5311E+01  0.5654E+02
   9.050  0.5406E+01  0.5659E+02
   9.060  0.5503E+01  0.5665E+02
   9.070  0.5581E+01  0.5670E+02
   9.080  0.5588E+01  0.5676E+02
   9.090  0.5576E+01  0.5681E+02
   9.100  0.5546E+01  0.5687E+02
   9.110  0.5499E+01  0.5692E+02
   9.120  0.5435E+01  0.5698E+02
   9.130  0.5353E+01  0.5703E+02
   9.140  0.5254E+01  0.5709E+02
   9.150  0.5140E+01  0.5714E+02
   9.160  0.4925E+01  0.5719E+02
   9.170  0.4669E+01  0.5724E+02
   9.180  0.4312E+01  0.5728E+02
   9.190  0.4112E+01  0.5732E+02
   9.200  0.4020E+01  0.5736E+02
   9.210  0.3912E+01  0.5740E+02
   9.220  0.3787E+01  0.5744E+02
   9.230  0.3645E+01  0.5748E+02
   9.240  0.3487E+01  0.5751E+02
   9.250  0.3311E+01  0.5755E+02
   9.260  0.3119E+01  0.5758E+02
   9.270  0.2993E+01  0.5761E+02
   9.280  0.2791E+01  0.5764E+02
   9.290  0.2628E+01  0.5767E+02
   9.300  0.2467E+01  0.5769E+02
   9.310  0.2319E+01  0.5772E+02
   9.320  0.2183E+01  0.5774E+02
   9.330  0.2060E+01  0.5776E+02
   9.340  0.1950E+01  0.5778E+02
   9.350  0.1873E+01  0.5780E+02
   9.360  0.1874E+01  0.5782E+02
   9.370  0.1990E+01  0.5784E+02
   9.380  0.2194E+01  0.5786E+02
   9.390  0.2436E+01  0.5788E+02
   9.400  0.2703E+01  0.5791E+02
   9.410  0.2981E+01  0.5794E+02
   9.420  0.3158E+01  0.5797E+02
   9.430  0.3287E+01  0.5800E+02
   9.440  0.3422E+01  0.5803E+02
   9.450  0.3564E+01  0.5807E+02
   9.460  0.3712E+01  0.5810E+02
   9.470  0.3862E+01  0.5814E+02
   9.480  0.4006E+01  0.5818E+02
   9.490  0.4145E+01  0.5822E+02
   9.500  0.4277E+01  0.5826E+02
   9.510  0.4401E+01  0.5831E+02
   9.520  0.4495E+01  0.5835E+02
   9.530  0.4554E+01  0.5840E+02
   9.540  0.4583E+01  0.5844E+02
   9.550  0.4615E+01  0.5849E+02
   9.560  0.4648E+01  0.5854E+02
   9.570  0.4678E+01  0.5858E+02
   9.580  0.4723E+01  0.5863E+02
   9.590  0.4912E+01  0.5868E+02
   9.600  0.4990E+01  0.5873E+02
   9.610  0.4963E+01  0.5878E+02
   9.620  0.4836E+01  0.5883E+02
   9.630  0.4679E+01  0.5887E+02
   9.640  0.4531E+01  0.5892E+02
   9.650  0.4421E+01  0.5896E+02
   9.660  0.4337E+01  0.5901E+02
   9.670  0.4323E+01  0.5905E+02
   9.680  0.4368E+01  0.5909E+02
   9.690  0.4476E+01  0.5914E+02
   9.700  0.4769E+01  0.5918E+02
   9.710  0.4962E+01  0.5923E+02
   9.720  0.5196E+01  0.5928E+02
   9.730  0.5443E+01  0.5934E+02
   9.740  0.5681E+01  0.5939E+02
   9.750  0.5911E+01  0.5945E+02
   9.760  0.7208E+01  0.5952E+02
   9.770  0.7753E+01  0.5959E+02
   9.780  0.7025E+01  0.5967E+02
   9.790  0.6033E+01  0.5973E+02
   9.800  0.4293E+01  0.5978E+02
   9.810  0.3189E+01  0.5982E+02
   9.820  0.2831E+01  0.5985E+02
   9.830  0.2466E+01  0.5988E+02
   9.840  0.2097E+01  0.5990E+02
   9.850  0.1725E+01  0.5992E+02
   9.860  0.1348E+01  0.5993E+02
   9.870  0.9658E+00  0.5995E+02
   9.880  0.8180E+00  0.5995E+02
   9.890  0.8335E+00  0.5996E+02
   9.900  0.8543E+00  0.5997E+02
   9.910  0.8782E+00  0.5998E+02
   9.920  0.9051E+00  0.5999E+02
   9.930  0.9351E+00  0.6000E+02
   9.940  0.9681E+00  0.6001E+02
   9.950  0.1004E+01  0.6002E+02
   9.960  0.1041E+01  0.6003E+02
   9.970  0.1081E+01  0.6004E+02
   9.980  0.1123E+01  0.6005E+02
   9.990  0.1168E+01  0.6006E+02
  10.000  0.1216E+01  0.6007E+02
  10.010  0.1266E+01  0.6008E+02
  10.020  0.1320E+01  0.6010E+02
  10.030  0.1378E+01  0.6011E+02
  10.040  0.1473E+01  0.6013E+02
  10.050  0.1612E+01  0.6014E+02
  10.060  0.1784E+01  0.6016E+02
  10.070  0.1982E+01  0.6018E+02
  10.080  0.2205E+01  0.6020E+02
  10.090  0.2455E+01  0.6022E+02
  10.100  0.2751E+01  0.6025E+02
  10.110  0.3103E+01  0.6028E+02
  10.120  0.3382E+01  0.6031E+02
  10.130  0.3647E+01  0.6034E+02
  10.140  0.3900E+01  0.6038E+02
  10.150  0.4140E+01  0.6042E+02
  10.160  0.4476E+01  0.6046E+02
  10.170  0.4847E+01  0.6051E+02
  10.180  0.5243E+01  0.6056E+02
  10.190  0.5664E+01  0.6062E+02
  10.200  0.6008E+01  0.6067E+02
  10.210  0.6332E+01  0.6074E+02
  10.220  0.6695E+01  0.6080E+02
  10.230  0.7037E+01  0.6087E+02
  10.240  0.7210E+01  0.6094E+02
  10.250  0.7208E+01  0.6101E+02
  10.260  0.7208E+01  0.6109E+02
  10.270  0.7696E+01  0.6116E+02
  10.280  0.7356E+01  0.6124E+02
  10.290  0.6393E+01  0.6131E+02
  10.300  0.5303E+01  0.6136E+02
  10.310  0.4481E+01  0.6141E+02
  10.320  0.3918E+01  0.6145E+02
  10.330  0.3527E+01  0.6149E+02
  10.340  0.3202E+01  0.6152E+02
  10.350  0.2908E+01  0.6156E+02
  10.360  0.2642E+01  0.6158E+02
  10.370  0.2407E+01  0.6161E+02
  10.380  0.2200E+01  0.6163E+02
  10.390  0.2024E+01  0.6165E+02
  10.400  0.1866E+01  0.6167E+02
  10.410  0.1719E+01  0.6169E+02
  10.420  0.1589E+01  0.6171E+02
  10.430  0.1518E+01  0.6172E+02
  10.440  0.1480E+01  0.6174E+02
  10.450  0.1501E+01  0.6175E+02
  10.460  0.1489E+01  0.6177E+02
  10.470  0.1480E+01  0.6178E+02
  10.480  0.1478E+01  0.6180E+02
  10.490  0.1485E+01  0.6181E+02
  10.500  0.1494E+01  0.6183E+02
  10.510  0.1493E+01  0.6184E+02
  10.520  0.1488E+01  0.6186E+02
  10.530  0.1479E+01  0.6187E+02
  10.540  0.1466E+01  0.6189E+02
  10.550  0.1449E+01  0.6190E+02
  10.560  0.1428E+01  0.6191E+02
  10.570  0.1432E+01  0.6193E+02
  10.580  0.1483E+01  0.6194E+02
  10.590  0.1578E+01  0.6196E+02
  10.600  0.1705E+01  0.6197E+02
  10.610  0.1859E+01  0.6199E+02
  10.620  0.2129E+01  0.6201E+02
  10.630  0.2404E+01  0.6204E+02
  10.640  0.2683E+01  0.6206E+02
  10.650  0.2971E+01  0.6209E+02
  10.660  0.3275E+01  0.6212E+02
  10.670  0.3596E+01  0.6215E+02
  10.680  0.3933E+01  0.6219E+02
  10.690  0.4285E+01  0.6223E+02
  10.700  0.4623E+01  0.6228E+02
  10.710  0.4966E+01  0.6233E+02
  10.720  0.5428E+01  0.6238E+02
  10.730  0.5842E+01  0.6243E+02
  10.740  0.6191E+01  0.6249E+02
  10.750  0.6408E+01  0.6256E+02
  10.760  0.6476E+01  0.6262E+02
  10.770  0.6525E+01  0.6269E+02
  10.780  0.6648E+01  0.6275E+02
  10.790  0.6896E+01  0.6282E+02
  10.800  0.7217E+01  0.6289E+02
  10.810  0.7436E+01  0.6296E+02
  10.820  0.7570E+01  0.6304E+02
  10.830  0.7604E+01  0.6312E+02
  10.840  0.7493E+01  0.6319E+02
  10.850  0.7148E+01  0.6326E+02
  10.860  0.7157E+01  0.6333E+02
  10.870  0.7170E+01  0.6341E+02
  10.880  0.7191E+01  0.6348E+02
  10.890  0.7342E+01  0.6355E+02
  10.900  0.8489E+01  0.6363E+02
  10.910  0.9049E+01  0.6372E+02
  10.920  0.9404E+01  0.6381E+02
  10.930  0.9894E+01  0.6391E+02
  10.940  0.1045E+02  0.6401E+02
  10.950  0.9713E+01  0.6411E+02
  10.960  0.8579E+01  0.6420E+02
  10.970  0.8137E+01  0.6428E+02
  10.980  0.8021E+01  0.6436E+02
  10.990  0.7858E+01  0.6444E+02
  11.000  0.7653E+01  0.6452E+02
  11.010  0.7403E+01  0.6460E+02
  11.020  0.7156E+01  0.6467E+02
  11.030  0.6996E+01  0.6474E+02
  11.040  0.7349E+01  0.6481E+02
  11.050  0.7957E+01  0.6489E+02
  11.060  0.8523E+01  0.6497E+02
  11.070  0.9136E+01  0.6506E+02
  11.080  0.9782E+01  0.6515E+02
  11.090  0.1044E+02  0.6525E+02
  11.100  0.1110E+02  0.6536E+02
  11.110  0.1153E+02  0.6548E+02
  11.120  0.1145E+02  0.6559E+02
  11.130  0.1164E+02  0.6571E+02
  11.140  0.1194E+02  0.6582E+02
  11.150  0.1302E+02  0.6595E+02
  11.160  0.1455E+02  0.6609E+02
  11.170  0.1396E+02  0.6624E+02
  11.180  0.1256E+02  0.6637E+02
  11.190  0.1152E+02  0.6649E+02
  11.200  0.1063E+02  0.6660E+02
  11.210  0.9925E+01  0.6670E+02
  11.220  0.9545E+01  0.6680E+02
  11.230  0.9287E+01  0.6689E+02
  11.240  0.9078E+01  0.6699E+02
  11.250  0.8887E+01  0.6707E+02
  11.260  0.9811E+01  0.6717E+02
  11.270  0.8705E+01  0.6727E+02
  11.280  0.8566E+01  0.6735E+02
  11.290  0.8445E+01  0.6744E+02
  11.300  0.8330E+01  0.6752E+02
  11.310  0.8222E+01  0.6760E+02
  11.320  0.8117E+01  0.6769E+02
  11.330  0.8016E+01  0.6777E+02
  11.340  0.7920E+01  0.6785E+02
  11.350  0.7828E+01  0.6792E+02
  11.360  0.7791E+01  0.6800E+02
  11.370  0.7844E+01  0.6808E+02
  11.380  0.7932E+01  0.6816E+02
  11.390  0.8034E+01  0.6824E+02
  11.400  0.8141E+01  0.6832E+02
  11.410  0.8241E+01  0.6840E+02
  11.420  0.8322E+01  0.6848E+02
  11.430  0.8395E+01  0.6857E+02
  11.440  0.8452E+01  0.6865E+02
  11.450  0.8433E+01  0.6874E+02
  11.460  0.8317E+01  0.6882E+02
  11.470  0.8010E+01  0.6890E+02
  11.480  0.7708E+01  0.6898E+02
  11.490  0.7194E+01  0.6906E+02
  11.500  0.6633E+01  0.6912E+02
  11.510  0.6441E+01  0.6919E+02
  11.520  0.6257E+01  0.6925E+02
  11.530  0.6105E+01  0.6931E+02
  11.540  0.6057E+01  0.6938E+02
  11.550  0.6264E+01  0.6944E+02
  11.560  0.6433E+01  0.6950E+02
  11.570  0.6745E+01  0.6957E+02
  11.580  0.7074E+01  0.6964E+02
  11.590  0.7335E+01  0.6971E+02
  11.600  0.7694E+01  0.6978E+02
  11.610  0.7937E+01  0.6986E+02
  11.620  0.8172E+01  0.6994E+02
  11.630  0.8396E+01  0.7002E+02
  11.640  0.8589E+01  0.7011E+02
  11.650  0.8749E+01  0.7020E+02
  11.660  0.8875E+01  0.7028E+02
  11.670  0.8967E+01  0.7037E+02
  11.680  0.9023E+01  0.7046E+02
  11.690  0.9043E+01  0.7055E+02
  11.700  0.9827E+01  0.7065E+02
  11.710  0.9038E+01  0.7074E+02
  11.720  0.8688E+01  0.7083E+02
  11.730  0.8416E+01  0.7091E+02
  11.740  0.8194E+01  0.7100E+02
  11.750  0.8023E+01  0.7108E+02
  11.760  0.7901E+01  0.7116E+02
  11.770  0.7916E+01  0.7124E+02
  11.780  0.8184E+01  0.7132E+02
  11.790  0.8552E+01  0.7140E+02
  11.800  0.8815E+01  0.7149E+02
  11.810  0.8871E+01  0.7158E+02
  11.820  0.8893E+01  0.7167E+02
  11.830  0.8849E+01  0.7175E+02
  11.840  0.8726E+01  0.7184E+02
  11.850  0.8526E+01  0.7193E+02
  11.860  0.8567E+01  0.7201E+02
  11.870  0.8610E+01  0.7210E+02
  11.880  0.8620E+01  0.7219E+02
  11.890  0.8576E+01  0.7227E+02
  11.900  0.8492E+01  0.7236E+02
  11.910  0.8375E+01  0.7244E+02
  11.920  0.8216E+01  0.7252E+02
  11.930  0.8152E+01  0.7261E+02
  11.940  0.8076E+01  0.7269E+02
  11.950  0.7988E+01  0.7277E+02
  11.960  0.7890E+01  0.7285E+02
  11.970  0.7791E+01  0.7293E+02
  11.980  0.7727E+01  0.7300E+02
  11.990  0.7661E+01  0.7308E+02
  12.000  0.7776E+01  0.7316E+02
  12.010  0.9260E+01  0.7324E+02
  12.020  0.1072E+02  0.7334E+02
  12.030  0.1246E+02  0.7346E+02
  12.040  0.1337E+02  0.7359E+02
  12.050  0.1355E+02  0.7372E+02
  12.060  0.1290E+02  0.7386E+02
  12.070  0.1112E+02  0.7398E+02
  12.080  0.9360E+01  0.7408E+02
  12.090  0.7966E+01  0.7416E+02
  12.100  0.7111E+01  0.7424E+02
  12.110  0.6448E+01  0.7431E+02
  12.120  0.5981E+01  0.7437E+02
  12.130  0.5851E+01  0.7443E+02
  12.140  0.5750E+01  0.7449E+02
  12.150  0.6604E+01  0.7455E+02
  12.160  0.8267E+01  0.7462E+02
  12.170  0.8277E+01  0.7470E+02
  12.180  0.8550E+01  0.7479E+02
  12.190  0.8918E+01  0.7488E+02
  12.200  0.9293E+01  0.7497E+02
  12.210  0.9537E+01  0.7506E+02
  12.220  0.9743E+01  0.7516E+02
  12.230  0.9808E+01  0.7526E+02
  12.240  0.9752E+01  0.7535E+02
  12.250  0.9627E+01  0.7545E+02
  12.260  0.9403E+01  0.7555E+02
  12.270  0.9072E+01  0.7564E+02
  12.280  0.8694E+01  0.7573E+02
  12.290  0.8587E+01  0.7581E+02
  12.300  0.8485E+01  0.7590E+02
  12.310  0.8389E+01  0.7598E+02
  12.320  0.8300E+01  0.7607E+02
  12.330  0.8197E+01  0.7615E+02
  12.340  0.8052E+01  0.7623E+02
  12.350  0.7934E+01  0.7631E+02
  12.360  0.7957E+01  0.7639E+02
  12.370  0.7826E+01  0.7647E+02
  12.380  0.7585E+01  0.7654E+02
  12.390  0.7258E+01  0.7662E+02
  12.400  0.6848E+01  0.7669E+02
  12.410  0.6367E+01  0.7676E+02
  12.420  0.6218E+01  0.7682E+02
  12.430  0.6146E+01  0.7688E+02
  12.440  0.6095E+01  0.7694E+02
  12.450  0.6096E+01  0.7700E+02
  12.460  0.6085E+01  0.7706E+02
  12.470  0.6060E+01  0.7712E+02
  12.480  0.6027E+01  0.7718E+02
  12.490  0.5973E+01  0.7724E+02
  12.500  0.6001E+01  0.7730E+02
  12.510  0.6022E+01  0.7736E+02
  12.520  0.6058E+01  0.7742E+02
  12.530  0.6124E+01  0.7749E+02
  12.540  0.6501E+01  0.7755E+02
  12.550  0.6676E+01  0.7761E+02
  12.560  0.5903E+01  0.7768E+02
  12.570  0.5704E+01  0.7774E+02
  12.580  0.5618E+01  0.7779E+02
  12.590  0.5548E+01  0.7785E+02
  12.600  0.5477E+01  0.7790E+02
  12.610  0.5393E+01  0.7796E+02
  12.620  0.5300E+01  0.7801E+02
  12.630  0.5152E+01  0.7806E+02
  12.640  0.4994E+01  0.7811E+02
  12.650  0.4829E+01  0.7816E+02
  12.660  0.4647E+01  0.7821E+02
  12.670  0.4453E+01  0.7826E+02
  12.680  0.4267E+01  0.7830E+02
  12.690  0.4087E+01  0.7834E+02
  12.700  0.3913E+01  0.7838E+02
  12.710  0.3738E+01  0.7842E+02
  12.720  0.3559E+01  0.7846E+02
  12.730  0.3375E+01  0.7849E+02
  12.740  0.3184E+01  0.7852E+02
  12.750  0.2987E+01  0.7855E+02
  12.760  0.2783E+01  0.7858E+02
  12.770  0.2612E+01  0.7861E+02
  12.780  0.2507E+01  0.7864E+02
  12.790  0.2768E+01  0.7866E+02
  12.800  0.2792E+01  0.7869E+02
  12.810  0.2835E+01  0.7872E+02
  12.820  0.2898E+01  0.7875E+02
  12.830  0.2989E+01  0.7878E+02
  12.840  0.3105E+01  0.7881E+02
  12.850  0.3228E+01  0.7884E+02
  12.860  0.3356E+01  0.7887E+02
  12.870  0.3489E+01  0.7891E+02
  12.880  0.3627E+01  0.7894E+02
  12.890  0.3770E+01  0.7898E+02
  12.900  0.3916E+01  0.7902E+02
  12.910  0.4068E+01  0.7906E+02
  12.920  0.4224E+01  0.7910E+02
  12.930  0.4385E+01  0.7914E+02
  12.940  0.4550E+01  0.7919E+02
  12.950  0.4720E+01  0.7923E+02
  12.960  0.4894E+01  0.7928E+02
  12.970  0.5074E+01  0.7933E+02
  12.980  0.6364E+01  0.7939E+02
  12.990  0.7350E+01  0.7946E+02
  13.000  0.8024E+01  0.7953E+02
  13.010  0.8015E+01  0.7962E+02
  13.020  0.3881E+01  0.7968E+02
  13.030  0.3320E+01  0.7971E+02
  13.040  0.2934E+01  0.7974E+02
  13.050  0.2586E+01  0.7977E+02
  13.060  0.2276E+01  0.7980E+02
  13.070  0.2003E+01  0.7982E+02
  13.080  0.1767E+01  0.7984E+02
  13.090  0.1569E+01  0.7985E+02
  13.100  0.1408E+01  0.7987E+02
  13.110  0.1285E+01  0.7988E+02
  13.120  0.1191E+01  0.7989E+02
  13.130  0.1102E+01  0.7991E+02
  13.140  0.1017E+01  0.7992E+02
  13.150  0.9347E+00  0.7993E+02
  13.160  0.8565E+00  0.7993E+02
  13.170  0.7819E+00  0.7994E+02
  13.180  0.7108E+00  0.7995E+02
  13.190  0.6434E+00  0.7996E+02
  13.200  0.5795E+00  0.7996E+02
  13.210  0.5192E+00  0.7997E+02
  13.220  0.4625E+00  0.7997E+02
  13.230  0.4094E+00  0.7998E+02
  13.240  0.3599E+00  0.7998E+02
  13.250  0.3140E+00  0.7999E+02
  13.260  0.2717E+00  0.7999E+02
  13.270  0.2325E+00  0.7999E+02
  13.280  0.1959E+00  0.7999E+02
  13.290  0.1623E+00  0.7999E+02
  13.300  0.1318E+00  0.8000E+02
  13.310  0.1044E+00  0.8000E+02
  13.320  0.8021E-01  0.8000E+02
  13.330  0.5910E-01  0.8000E+02
  13.340  0.4110E-01  0.8000E+02
  13.350  0.2623E-01  0.8000E+02
  13.360  0.1447E-01  0.8000E+02
  13.370  0.5429E-02  0.8000E+02
