#  E (eV)   dos(E)     Int dos(E) EFermi =    2.022 eV
 -11.680  0.0000E+00  0.0000E+00
 -11.670  0.7951E+00  0.4950E-02
 -11.660  0.1174E+01  0.1500E-01
 -11.650  0.1477E+01  0.2840E-01
 -11.640  0.1753E+01  0.4464E-01
 -11.630  0.2012E+01  0.6343E-01
 -11.620  0.2241E+01  0.8469E-01
 -11.610  0.2483E+01  0.1083E+00
 -11.600  0.2715E+01  0.1343E+00
 -11.590  0.2955E+01  0.1627E+00
 -11.580  0.3197E+01  0.1934E+00
 -11.570  0.3453E+01  0.2267E+00
 -11.560  0.3718E+01  0.2625E+00
 -11.550  0.4007E+01  0.3011E+00
 -11.540  0.4314E+01  0.3427E+00
 -11.530  0.4672E+01  0.3876E+00
 -11.520  0.5061E+01  0.4362E+00
 -11.510  0.5589E+01  0.4895E+00
 -11.500  0.6373E+01  0.5488E+00
 -11.490  0.7483E+01  0.6199E+00
 -11.480  0.7305E+01  0.6938E+00
 -11.470  0.7170E+01  0.7664E+00
 -11.460  0.7042E+01  0.8375E+00
 -11.450  0.6912E+01  0.9072E+00
 -11.440  0.6762E+01  0.9756E+00
 -11.430  0.6629E+01  0.1043E+01
 -11.420  0.6484E+01  0.1108E+01
 -11.410  0.6338E+01  0.1172E+01
 -11.400  0.6193E+01  0.1235E+01
 -11.390  0.6040E+01  0.1296E+01
 -11.380  0.5888E+01  0.1356E+01
 -11.370  0.5729E+01  0.1414E+01
 -11.360  0.5560E+01  0.1470E+01
 -11.350  0.5392E+01  0.1525E+01
 -11.340  0.5205E+01  0.1578E+01
 -11.330  0.5017E+01  0.1629E+01
 -11.320  0.4822E+01  0.1678E+01
 -11.310  0.4591E+01  0.1725E+01
 -11.300  0.4371E+01  0.1770E+01
 -11.290  0.4153E+01  0.1813E+01
 -11.280  0.3265E+01  0.1850E+01
 -11.270  0.2775E+01  0.1880E+01
 -11.260  0.2392E+01  0.1906E+01
 -11.250  0.2056E+01  0.1928E+01
 -11.240  0.1764E+01  0.1947E+01
 -11.230  0.1492E+01  0.1963E+01
 -11.220  0.1227E+01  0.1977E+01
 -11.210  0.9509E+00  0.1988E+01
 -11.200  0.6356E+00  0.1996E+01
 -11.190  0.5194E+02  0.2095E+01
 -11.180  0.3897E+02  0.2757E+01
 -11.170  0.2990E+02  0.3085E+01
 -11.160  0.2511E+02  0.3349E+01
 -11.150  0.2220E+02  0.3584E+01
 -11.140  0.2113E+02  0.3800E+01
 -11.130  0.2016E+02  0.4006E+01
 -11.120  0.1952E+02  0.4204E+01
 -11.110  0.1903E+02  0.4397E+01
 -11.100  0.1910E+02  0.4587E+01
 -11.090  0.1893E+02  0.4777E+01
 -11.080  0.1883E+02  0.4967E+01
 -11.070  0.1939E+02  0.5158E+01
 -11.060  0.1994E+02  0.5352E+01
 -11.050  0.2050E+02  0.5551E+01
 -11.040  0.2083E+02  0.5757E+01
 -11.030  0.2065E+02  0.5974E+01
 -11.020  0.0000E+00  0.6000E+01
 -11.010  0.0000E+00  0.6000E+01
 -11.000  0.0000E+00  0.6000E+01
 -10.990  0.0000E+00  0.6000E+01
 -10.980  0.0000E+00  0.6000E+01
 -10.970  0.0000E+00  0.6000E+01
 -10.960  0.0000E+00  0.6000E+01
 -10.950  0.0000E+00  0.6000E+01
 -10.940  0.0000E+00  0.6000E+01
 -10.930  0.0000E+00  0.6000E+01
 -10.920  0.0000E+00  0.6000E+01
 -10.910  0.0000E+00  0.6000E+01
 -10.900  0.0000E+00  0.6000E+01
 -10.890  0.0000E+00  0.6000E+01
 -10.880  0.0000E+00  0.6000E+01
 -10.870  0.0000E+00  0.6000E+01
 -10.860  0.0000E+00  0.6000E+01
 -10.850  0.0000E+00  0.6000E+01
 -10.840  0.0000E+00  0.6000E+01
 -10.830  0.0000E+00  0.6000E+01
 -10.820  0.0000E+00  0.6000E+01
 -10.810  0.0000E+00  0.6000E+01
 -10.800  0.0000E+00  0.6000E+01
 -10.790  0.0000E+00  0.6000E+01
 -10.780  0.0000E+00  0.6000E+01
 -10.770  0.0000E+00  0.6000E+01
 -10.760  0.0000E+00  0.6000E+01
 -10.750  0.0000E+00  0.6000E+01
 -10.740  0.0000E+00  0.6000E+01
 -10.730  0.0000E+00  0.6000E+01
 -10.720  0.0000E+00  0.6000E+01
 -10.710  0.0000E+00  0.6000E+01
 -10.700  0.0000E+00  0.6000E+01
 -10.690  0.0000E+00  0.6000E+01
 -10.680  0.0000E+00  0.6000E+01
 -10.670  0.0000E+00  0.6000E+01
 -10.660  0.0000E+00  0.6000E+01
 -10.650  0.0000E+00  0.6000E+01
 -10.640  0.0000E+00  0.6000E+01
 -10.630  0.0000E+00  0.6000E+01
 -10.620  0.0000E+00  0.6000E+01
 -10.610  0.0000E+00  0.6000E+01
 -10.600  0.0000E+00  0.6000E+01
 -10.590  0.0000E+00  0.6000E+01
 -10.580  0.0000E+00  0.6000E+01
 -10.570  0.0000E+00  0.6000E+01
 -10.560  0.0000E+00  0.6000E+01
 -10.550  0.0000E+00  0.6000E+01
 -10.540  0.0000E+00  0.6000E+01
 -10.530  0.0000E+00  0.6000E+01
 -10.520  0.0000E+00  0.6000E+01
 -10.510  0.0000E+00  0.6000E+01
 -10.500  0.0000E+00  0.6000E+01
 -10.490  0.0000E+00  0.6000E+01
 -10.480  0.0000E+00  0.6000E+01
 -10.470  0.0000E+00  0.6000E+01
 -10.460  0.0000E+00  0.6000E+01
 -10.450  0.0000E+00  0.6000E+01
 -10.440  0.0000E+00  0.6000E+01
 -10.430  0.0000E+00  0.6000E+01
 -10.420  0.0000E+00  0.6000E+01
 -10.410  0.0000E+00  0.6000E+01
 -10.400  0.0000E+00  0.6000E+01
 -10.390  0.0000E+00  0.6000E+01
 -10.380  0.0000E+00  0.6000E+01
 -10.370  0.0000E+00  0.6000E+01
 -10.360  0.0000E+00  0.6000E+01
 -10.350  0.0000E+00  0.6000E+01
 -10.340  0.0000E+00  0.6000E+01
 -10.330  0.0000E+00  0.6000E+01
 -10.320  0.0000E+00  0.6000E+01
 -10.310  0.0000E+00  0.6000E+01
 -10.300  0.0000E+00  0.6000E+01
 -10.290  0.0000E+00  0.6000E+01
 -10.280  0.0000E+00  0.6000E+01
 -10.270  0.0000E+00  0.6000E+01
 -10.260  0.0000E+00  0.6000E+01
 -10.250  0.0000E+00  0.6000E+01
 -10.240  0.0000E+00  0.6000E+01
 -10.230  0.0000E+00  0.6000E+01
 -10.220  0.0000E+00  0.6000E+01
 -10.210  0.0000E+00  0.6000E+01
 -10.200  0.0000E+00  0.6000E+01
 -10.190  0.0000E+00  0.6000E+01
 -10.180  0.0000E+00  0.6000E+01
 -10.170  0.0000E+00  0.6000E+01
 -10.160  0.0000E+00  0.6000E+01
 -10.150  0.0000E+00  0.6000E+01
 -10.140  0.0000E+00  0.6000E+01
 -10.130  0.0000E+00  0.6000E+01
 -10.120  0.0000E+00  0.6000E+01
 -10.110  0.0000E+00  0.6000E+01
 -10.100  0.0000E+00  0.6000E+01
 -10.090  0.0000E+00  0.6000E+01
 -10.080  0.0000E+00  0.6000E+01
 -10.070  0.0000E+00  0.6000E+01
 -10.060  0.0000E+00  0.6000E+01
 -10.050  0.0000E+00  0.6000E+01
 -10.040  0.0000E+00  0.6000E+01
 -10.030  0.0000E+00  0.6000E+01
 -10.020  0.0000E+00  0.6000E+01
 -10.010  0.0000E+00  0.6000E+01
 -10.000  0.0000E+00  0.6000E+01
  -9.990  0.0000E+00  0.6000E+01
  -9.980  0.0000E+00  0.6000E+01
  -9.970  0.0000E+00  0.6000E+01
  -9.960  0.0000E+00  0.6000E+01
  -9.950  0.0000E+00  0.6000E+01
  -9.940  0.0000E+00  0.6000E+01
  -9.930  0.0000E+00  0.6000E+01
  -9.920  0.0000E+00  0.6000E+01
  -9.910  0.0000E+00  0.6000E+01
  -9.900  0.0000E+00  0.6000E+01
  -9.890  0.0000E+00  0.6000E+01
  -9.880  0.0000E+00  0.6000E+01
  -9.870  0.0000E+00  0.6000E+01
  -9.860  0.0000E+00  0.6000E+01
  -9.850  0.0000E+00  0.6000E+01
  -9.840  0.0000E+00  0.6000E+01
  -9.830  0.0000E+00  0.6000E+01
  -9.820  0.0000E+00  0.6000E+01
  -9.810  0.0000E+00  0.6000E+01
  -9.800  0.0000E+00  0.6000E+01
  -9.790  0.0000E+00  0.6000E+01
  -9.780  0.0000E+00  0.6000E+01
  -9.770  0.0000E+00  0.6000E+01
  -9.760  0.0000E+00  0.6000E+01
  -9.750  0.0000E+00  0.6000E+01
  -9.740  0.0000E+00  0.6000E+01
  -9.730  0.0000E+00  0.6000E+01
  -9.720  0.0000E+00  0.6000E+01
  -9.710  0.0000E+00  0.6000E+01
  -9.700  0.0000E+00  0.6000E+01
  -9.690  0.0000E+00  0.6000E+01
  -9.680  0.0000E+00  0.6000E+01
  -9.670  0.0000E+00  0.6000E+01
  -9.660  0.0000E+00  0.6000E+01
  -9.650  0.0000E+00  0.6000E+01
  -9.640  0.0000E+00  0.6000E+01
  -9.630  0.0000E+00  0.6000E+01
  -9.620  0.0000E+00  0.6000E+01
  -9.610  0.0000E+00  0.6000E+01
  -9.600  0.0000E+00  0.6000E+01
  -9.590  0.0000E+00  0.6000E+01
  -9.580  0.0000E+00  0.6000E+01
  -9.570  0.0000E+00  0.6000E+01
  -9.560  0.0000E+00  0.6000E+01
  -9.550  0.0000E+00  0.6000E+01
  -9.540  0.0000E+00  0.6000E+01
  -9.530  0.0000E+00  0.6000E+01
  -9.520  0.0000E+00  0.6000E+01
  -9.510  0.0000E+00  0.6000E+01
  -9.500  0.0000E+00  0.6000E+01
  -9.490  0.0000E+00  0.6000E+01
  -9.480  0.0000E+00  0.6000E+01
  -9.470  0.0000E+00  0.6000E+01
  -9.460  0.0000E+00  0.6000E+01
  -9.450  0.0000E+00  0.6000E+01
  -9.440  0.0000E+00  0.6000E+01
  -9.430  0.0000E+00  0.6000E+01
  -9.420  0.0000E+00  0.6000E+01
  -9.410  0.0000E+00  0.6000E+01
  -9.400  0.0000E+00  0.6000E+01
  -9.390  0.0000E+00  0.6000E+01
  -9.380  0.0000E+00  0.6000E+01
  -9.370  0.0000E+00  0.6000E+01
  -9.360  0.0000E+00  0.6000E+01
  -9.350  0.0000E+00  0.6000E+01
  -9.340  0.0000E+00  0.6000E+01
  -9.330  0.0000E+00  0.6000E+01
  -9.320  0.0000E+00  0.6000E+01
  -9.310  0.0000E+00  0.6000E+01
  -9.300  0.0000E+00  0.6000E+01
  -9.290  0.0000E+00  0.6000E+01
  -9.280  0.0000E+00  0.6000E+01
  -9.270  0.0000E+00  0.6000E+01
  -9.260  0.0000E+00  0.6000E+01
  -9.250  0.0000E+00  0.6000E+01
  -9.240  0.0000E+00  0.6000E+01
  -9.230  0.0000E+00  0.6000E+01
  -9.220  0.0000E+00  0.6000E+01
  -9.210  0.0000E+00  0.6000E+01
  -9.200  0.0000E+00  0.6000E+01
  -9.190  0.0000E+00  0.6000E+01
  -9.180  0.0000E+00  0.6000E+01
  -9.170  0.0000E+00  0.6000E+01
  -9.160  0.0000E+00  0.6000E+01
  -9.150  0.0000E+00  0.6000E+01
  -9.140  0.0000E+00  0.6000E+01
  -9.130  0.0000E+00  0.6000E+01
  -9.120  0.0000E+00  0.6000E+01
  -9.110  0.0000E+00  0.6000E+01
  -9.100  0.0000E+00  0.6000E+01
  -9.090  0.0000E+00  0.6000E+01
  -9.080  0.0000E+00  0.6000E+01
  -9.070  0.0000E+00  0.6000E+01
  -9.060  0.0000E+00  0.6000E+01
  -9.050  0.0000E+00  0.6000E+01
  -9.040  0.0000E+00  0.6000E+01
  -9.030  0.0000E+00  0.6000E+01
  -9.020  0.0000E+00  0.6000E+01
  -9.010  0.0000E+00  0.6000E+01
  -9.000  0.0000E+00  0.6000E+01
  -8.990  0.0000E+00  0.6000E+01
  -8.980  0.0000E+00  0.6000E+01
  -8.970  0.0000E+00  0.6000E+01
  -8.960  0.0000E+00  0.6000E+01
  -8.950  0.0000E+00  0.6000E+01
  -8.940  0.0000E+00  0.6000E+01
  -8.930  0.0000E+00  0.6000E+01
  -8.920  0.0000E+00  0.6000E+01
  -8.910  0.0000E+00  0.6000E+01
  -8.900  0.0000E+00  0.6000E+01
  -8.890  0.0000E+00  0.6000E+01
  -8.880  0.0000E+00  0.6000E+01
  -8.870  0.0000E+00  0.6000E+01
  -8.860  0.0000E+00  0.6000E+01
  -8.850  0.0000E+00  0.6000E+01
  -8.840  0.0000E+00  0.6000E+01
  -8.830  0.0000E+00  0.6000E+01
  -8.820  0.0000E+00  0.6000E+01
  -8.810  0.0000E+00  0.6000E+01
  -8.800  0.0000E+00  0.6000E+01
  -8.790  0.0000E+00  0.6000E+01
  -8.780  0.0000E+00  0.6000E+01
  -8.770  0.0000E+00  0.6000E+01
  -8.760  0.0000E+00  0.6000E+01
  -8.750  0.0000E+00  0.6000E+01
  -8.740  0.0000E+00  0.6000E+01
  -8.730  0.0000E+00  0.6000E+01
  -8.720  0.0000E+00  0.6000E+01
  -8.710  0.0000E+00  0.6000E+01
  -8.700  0.0000E+00  0.6000E+01
  -8.690  0.0000E+00  0.6000E+01
  -8.680  0.0000E+00  0.6000E+01
  -8.670  0.0000E+00  0.6000E+01
  -8.660  0.0000E+00  0.6000E+01
  -8.650  0.0000E+00  0.6000E+01
  -8.640  0.0000E+00  0.6000E+01
  -8.630  0.0000E+00  0.6000E+01
  -8.620  0.0000E+00  0.6000E+01
  -8.610  0.0000E+00  0.6000E+01
  -8.600  0.0000E+00  0.6000E+01
  -8.590  0.0000E+00  0.6000E+01
  -8.580  0.0000E+00  0.6000E+01
  -8.570  0.0000E+00  0.6000E+01
  -8.560  0.0000E+00  0.6000E+01
  -8.550  0.0000E+00  0.6000E+01
  -8.540  0.0000E+00  0.6000E+01
  -8.530  0.0000E+00  0.6000E+01
  -8.520  0.0000E+00  0.6000E+01
  -8.510  0.0000E+00  0.6000E+01
  -8.500  0.0000E+00  0.6000E+01
  -8.490  0.0000E+00  0.6000E+01
  -8.480  0.0000E+00  0.6000E+01
  -8.470  0.0000E+00  0.6000E+01
  -8.460  0.0000E+00  0.6000E+01
  -8.450  0.0000E+00  0.6000E+01
  -8.440  0.0000E+00  0.6000E+01
  -8.430  0.0000E+00  0.6000E+01
  -8.420  0.0000E+00  0.6000E+01
  -8.410  0.0000E+00  0.6000E+01
  -8.400  0.0000E+00  0.6000E+01
  -8.390  0.0000E+00  0.6000E+01
  -8.380  0.0000E+00  0.6000E+01
  -8.370  0.0000E+00  0.6000E+01
  -8.360  0.0000E+00  0.6000E+01
  -8.350  0.0000E+00  0.6000E+01
  -8.340  0.0000E+00  0.6000E+01
  -8.330  0.0000E+00  0.6000E+01
  -8.320  0.0000E+00  0.6000E+01
  -8.310  0.0000E+00  0.6000E+01
  -8.300  0.0000E+00  0.6000E+01
  -8.290  0.0000E+00  0.6000E+01
  -8.280  0.0000E+00  0.6000E+01
  -8.270  0.0000E+00  0.6000E+01
  -8.260  0.0000E+00  0.6000E+01
  -8.250  0.0000E+00  0.6000E+01
  -8.240  0.0000E+00  0.6000E+01
  -8.230  0.8879E-05  0.6000E+01
  -8.220  0.1275E+00  0.6001E+01
  -8.210  0.2058E+00  0.6002E+01
  -8.200  0.2435E+00  0.6005E+01
  -8.190  0.2941E+00  0.6007E+01
  -8.180  0.3317E+00  0.6010E+01
  -8.170  0.3668E+00  0.6014E+01
  -8.160  0.4075E+00  0.6018E+01
  -8.150  0.4401E+00  0.6022E+01
  -8.140  0.4704E+00  0.6027E+01
  -8.130  0.5039E+00  0.6031E+01
  -8.120  0.5395E+00  0.6037E+01
  -8.110  0.5680E+00  0.6042E+01
  -8.100  0.5976E+00  0.6048E+01
  -8.090  0.6291E+00  0.6054E+01
  -8.080  0.6618E+00  0.6061E+01
  -8.070  0.6927E+00  0.6067E+01
  -8.060  0.7229E+00  0.6074E+01
  -8.050  0.7536E+00  0.6082E+01
  -8.040  0.7861E+00  0.6090E+01
  -8.030  0.8196E+00  0.6098E+01
  -8.020  0.8515E+00  0.6106E+01
  -8.010  0.8838E+00  0.6115E+01
  -8.000  0.9177E+00  0.6124E+01
  -7.990  0.9522E+00  0.6133E+01
  -7.980  0.9875E+00  0.6143E+01
  -7.970  0.1024E+01  0.6153E+01
  -7.960  0.1061E+01  0.6163E+01
  -7.950  0.1099E+01  0.6174E+01
  -7.940  0.1137E+01  0.6185E+01
  -7.930  0.1177E+01  0.6197E+01
  -7.920  0.1220E+01  0.6209E+01
  -7.910  0.1265E+01  0.6221E+01
  -7.900  0.1309E+01  0.6234E+01
  -7.890  0.1355E+01  0.6247E+01
  -7.880  0.1405E+01  0.6261E+01
  -7.870  0.1460E+01  0.6275E+01
  -7.860  0.1515E+01  0.6290E+01
  -7.850  0.1571E+01  0.6306E+01
  -7.840  0.1633E+01  0.6322E+01
  -7.830  0.1705E+01  0.6338E+01
  -7.820  0.1778E+01  0.6356E+01
  -7.810  0.1852E+01  0.6374E+01
  -7.800  0.1953E+01  0.6393E+01
  -7.790  0.2059E+01  0.6413E+01
  -7.780  0.2178E+01  0.6434E+01
  -7.770  0.2362E+01  0.6457E+01
  -7.760  0.2749E+01  0.6482E+01
  -7.750  0.2770E+01  0.6510E+01
  -7.740  0.2741E+01  0.6537E+01
  -7.730  0.2752E+01  0.6565E+01
  -7.720  0.2728E+01  0.6592E+01
  -7.710  0.2726E+01  0.6619E+01
  -7.700  0.2727E+01  0.6647E+01
  -7.690  0.2705E+01  0.6674E+01
  -7.680  0.2701E+01  0.6701E+01
  -7.670  0.2698E+01  0.6728E+01
  -7.660  0.2683E+01  0.6755E+01
  -7.650  0.2674E+01  0.6781E+01
  -7.640  0.2670E+01  0.6808E+01
  -7.630  0.2664E+01  0.6835E+01
  -7.620  0.2653E+01  0.6861E+01
  -7.610  0.2643E+01  0.6888E+01
  -7.600  0.2637E+01  0.6914E+01
  -7.590  0.2632E+01  0.6941E+01
  -7.580  0.2624E+01  0.6967E+01
  -7.570  0.2614E+01  0.6993E+01
  -7.560  0.2607E+01  0.7019E+01
  -7.550  0.2601E+01  0.7045E+01
  -7.540  0.2594E+01  0.7071E+01
  -7.530  0.2586E+01  0.7097E+01
  -7.520  0.2579E+01  0.7123E+01
  -7.510  0.2572E+01  0.7149E+01
  -7.500  0.2564E+01  0.7174E+01
  -7.490  0.2557E+01  0.7200E+01
  -7.480  0.2553E+01  0.7226E+01
  -7.470  0.2545E+01  0.7251E+01
  -7.460  0.2536E+01  0.7276E+01
  -7.450  0.2529E+01  0.7302E+01
  -7.440  0.2527E+01  0.7327E+01
  -7.430  0.2521E+01  0.7352E+01
  -7.420  0.2510E+01  0.7377E+01
  -7.410  0.2501E+01  0.7403E+01
  -7.400  0.2502E+01  0.7428E+01
  -7.390  0.2497E+01  0.7453E+01
  -7.380  0.2484E+01  0.7477E+01
  -7.370  0.2474E+01  0.7502E+01
  -7.360  0.2482E+01  0.7527E+01
  -7.350  0.2464E+01  0.7552E+01
  -7.340  0.2473E+01  0.7576E+01
  -7.330  0.2443E+01  0.7601E+01
  -7.320  0.2416E+01  0.7626E+01
  -7.310  0.2079E+01  0.7648E+01
  -7.300  0.1903E+01  0.7667E+01
  -7.290  0.1783E+01  0.7686E+01
  -7.280  0.1676E+01  0.7703E+01
  -7.270  0.1590E+01  0.7719E+01
  -7.260  0.1505E+01  0.7735E+01
  -7.250  0.1435E+01  0.7750E+01
  -7.240  0.1371E+01  0.7764E+01
  -7.230  0.1308E+01  0.7777E+01
  -7.220  0.1248E+01  0.7790E+01
  -7.210  0.1197E+01  0.7802E+01
  -7.200  0.1147E+01  0.7814E+01
  -7.190  0.1097E+01  0.7825E+01
  -7.180  0.1051E+01  0.7836E+01
  -7.170  0.1009E+01  0.7846E+01
  -7.160  0.9672E+00  0.7856E+01
  -7.150  0.9267E+00  0.7865E+01
  -7.140  0.8869E+00  0.7874E+01
  -7.130  0.8508E+00  0.7883E+01
  -7.120  0.8156E+00  0.7891E+01
  -7.110  0.7810E+00  0.7899E+01
  -7.100  0.7470E+00  0.7907E+01
  -7.090  0.7143E+00  0.7914E+01
  -7.080  0.6829E+00  0.7921E+01
  -7.070  0.6522E+00  0.7928E+01
  -7.060  0.6222E+00  0.7934E+01
  -7.050  0.5931E+00  0.7940E+01
  -7.040  0.5637E+00  0.7946E+01
  -7.030  0.5347E+00  0.7952E+01
  -7.020  0.5072E+00  0.7957E+01
  -7.010  0.4804E+00  0.7962E+01
  -7.000  0.4534E+00  0.7967E+01
  -6.990  0.4243E+00  0.7971E+01
  -6.980  0.3974E+00  0.7975E+01
  -6.970  0.3719E+00  0.7979E+01
  -6.960  0.3455E+00  0.7982E+01
  -6.950  0.3142E+00  0.7986E+01
  -6.940  0.2870E+00  0.7989E+01
  -6.930  0.2627E+00  0.7992E+01
  -6.920  0.2267E+00  0.7994E+01
  -6.910  0.1907E+00  0.7996E+01
  -6.900  0.1636E+00  0.7998E+01
  -6.890  0.1066E+00  0.7999E+01
  -6.880  0.2134E-01  0.8000E+01
  -6.870  0.0000E+00  0.8000E+01
  -6.860  0.0000E+00  0.8000E+01
  -6.850  0.0000E+00  0.8000E+01
  -6.840  0.0000E+00  0.8000E+01
  -6.830  0.0000E+00  0.8000E+01
  -6.820  0.0000E+00  0.8000E+01
  -6.810  0.0000E+00  0.8000E+01
  -6.800  0.0000E+00  0.8000E+01
  -6.790  0.0000E+00  0.8000E+01
  -6.780  0.0000E+00  0.8000E+01
  -6.770  0.0000E+00  0.8000E+01
  -6.760  0.0000E+00  0.8000E+01
  -6.750  0.0000E+00  0.8000E+01
  -6.740  0.0000E+00  0.8000E+01
  -6.730  0.0000E+00  0.8000E+01
  -6.720  0.0000E+00  0.8000E+01
  -6.710  0.0000E+00  0.8000E+01
  -6.700  0.0000E+00  0.8000E+01
  -6.690  0.0000E+00  0.8000E+01
  -6.680  0.0000E+00  0.8000E+01
  -6.670  0.0000E+00  0.8000E+01
  -6.660  0.0000E+00  0.8000E+01
  -6.650  0.0000E+00  0.8000E+01
  -6.640  0.0000E+00  0.8000E+01
  -6.630  0.0000E+00  0.8000E+01
  -6.620  0.0000E+00  0.8000E+01
  -6.610  0.0000E+00  0.8000E+01
  -6.600  0.0000E+00  0.8000E+01
  -6.590  0.0000E+00  0.8000E+01
  -6.580  0.0000E+00  0.8000E+01
  -6.570  0.0000E+00  0.8000E+01
  -6.560  0.0000E+00  0.8000E+01
  -6.550  0.0000E+00  0.8000E+01
  -6.540  0.0000E+00  0.8000E+01
  -6.530  0.0000E+00  0.8000E+01
  -6.520  0.0000E+00  0.8000E+01
  -6.510  0.0000E+00  0.8000E+01
  -6.500  0.0000E+00  0.8000E+01
  -6.490  0.0000E+00  0.8000E+01
  -6.480  0.0000E+00  0.8000E+01
  -6.470  0.0000E+00  0.8000E+01
  -6.460  0.0000E+00  0.8000E+01
  -6.450  0.0000E+00  0.8000E+01
  -6.440  0.0000E+00  0.8000E+01
  -6.430  0.0000E+00  0.8000E+01
  -6.420  0.0000E+00  0.8000E+01
  -6.410  0.0000E+00  0.8000E+01
  -6.400  0.0000E+00  0.8000E+01
  -6.390  0.0000E+00  0.8000E+01
  -6.380  0.0000E+00  0.8000E+01
  -6.370  0.0000E+00  0.8000E+01
  -6.360  0.0000E+00  0.8000E+01
  -6.350  0.0000E+00  0.8000E+01
  -6.340  0.0000E+00  0.8000E+01
  -6.330  0.0000E+00  0.8000E+01
  -6.320  0.0000E+00  0.8000E+01
  -6.310  0.0000E+00  0.8000E+01
  -6.300  0.0000E+00  0.8000E+01
  -6.290  0.0000E+00  0.8000E+01
  -6.280  0.0000E+00  0.8000E+01
  -6.270  0.0000E+00  0.8000E+01
  -6.260  0.0000E+00  0.8000E+01
  -6.250  0.0000E+00  0.8000E+01
  -6.240  0.0000E+00  0.8000E+01
  -6.230  0.0000E+00  0.8000E+01
  -6.220  0.0000E+00  0.8000E+01
  -6.210  0.0000E+00  0.8000E+01
  -6.200  0.0000E+00  0.8000E+01
  -6.190  0.0000E+00  0.8000E+01
  -6.180  0.0000E+00  0.8000E+01
  -6.170  0.0000E+00  0.8000E+01
  -6.160  0.0000E+00  0.8000E+01
  -6.150  0.0000E+00  0.8000E+01
  -6.140  0.0000E+00  0.8000E+01
  -6.130  0.0000E+00  0.8000E+01
  -6.120  0.0000E+00  0.8000E+01
  -6.110  0.0000E+00  0.8000E+01
  -6.100  0.0000E+00  0.8000E+01
  -6.090  0.0000E+00  0.8000E+01
  -6.080  0.0000E+00  0.8000E+01
  -6.070  0.0000E+00  0.8000E+01
  -6.060  0.0000E+00  0.8000E+01
  -6.050  0.0000E+00  0.8000E+01
  -6.040  0.0000E+00  0.8000E+01
  -6.030  0.0000E+00  0.8000E+01
  -6.020  0.0000E+00  0.8000E+01
  -6.010  0.0000E+00  0.8000E+01
  -6.000  0.0000E+00  0.8000E+01
  -5.990  0.0000E+00  0.8000E+01
  -5.980  0.0000E+00  0.8000E+01
  -5.970  0.0000E+00  0.8000E+01
  -5.960  0.0000E+00  0.8000E+01
  -5.950  0.0000E+00  0.8000E+01
  -5.940  0.0000E+00  0.8000E+01
  -5.930  0.0000E+00  0.8000E+01
  -5.920  0.0000E+00  0.8000E+01
  -5.910  0.0000E+00  0.8000E+01
  -5.900  0.0000E+00  0.8000E+01
  -5.890  0.0000E+00  0.8000E+01
  -5.880  0.0000E+00  0.8000E+01
  -5.870  0.0000E+00  0.8000E+01
  -5.860  0.0000E+00  0.8000E+01
  -5.850  0.0000E+00  0.8000E+01
  -5.840  0.0000E+00  0.8000E+01
  -5.830  0.0000E+00  0.8000E+01
  -5.820  0.0000E+00  0.8000E+01
  -5.810  0.0000E+00  0.8000E+01
  -5.800  0.0000E+00  0.8000E+01
  -5.790  0.0000E+00  0.8000E+01
  -5.780  0.0000E+00  0.8000E+01
  -5.770  0.0000E+00  0.8000E+01
  -5.760  0.0000E+00  0.8000E+01
  -5.750  0.0000E+00  0.8000E+01
  -5.740  0.0000E+00  0.8000E+01
  -5.730  0.0000E+00  0.8000E+01
  -5.720  0.0000E+00  0.8000E+01
  -5.710  0.0000E+00  0.8000E+01
  -5.700  0.0000E+00  0.8000E+01
  -5.690  0.0000E+00  0.8000E+01
  -5.680  0.0000E+00  0.8000E+01
  -5.670  0.0000E+00  0.8000E+01
  -5.660  0.0000E+00  0.8000E+01
  -5.650  0.0000E+00  0.8000E+01
  -5.640  0.0000E+00  0.8000E+01
  -5.630  0.0000E+00  0.8000E+01
  -5.620  0.0000E+00  0.8000E+01
  -5.610  0.0000E+00  0.8000E+01
  -5.600  0.0000E+00  0.8000E+01
  -5.590  0.0000E+00  0.8000E+01
  -5.580  0.0000E+00  0.8000E+01
  -5.570  0.0000E+00  0.8000E+01
  -5.560  0.0000E+00  0.8000E+01
  -5.550  0.0000E+00  0.8000E+01
  -5.540  0.0000E+00  0.8000E+01
  -5.530  0.0000E+00  0.8000E+01
  -5.520  0.0000E+00  0.8000E+01
  -5.510  0.0000E+00  0.8000E+01
  -5.500  0.0000E+00  0.8000E+01
  -5.490  0.0000E+00  0.8000E+01
  -5.480  0.0000E+00  0.8000E+01
  -5.470  0.0000E+00  0.8000E+01
  -5.460  0.0000E+00  0.8000E+01
  -5.450  0.0000E+00  0.8000E+01
  -5.440  0.0000E+00  0.8000E+01
  -5.430  0.0000E+00  0.8000E+01
  -5.420  0.0000E+00  0.8000E+01
  -5.410  0.0000E+00  0.8000E+01
  -5.400  0.0000E+00  0.8000E+01
  -5.390  0.0000E+00  0.8000E+01
  -5.380  0.0000E+00  0.8000E+01
  -5.370  0.0000E+00  0.8000E+01
  -5.360  0.0000E+00  0.8000E+01
  -5.350  0.0000E+00  0.8000E+01
  -5.340  0.0000E+00  0.8000E+01
  -5.330  0.0000E+00  0.8000E+01
  -5.320  0.0000E+00  0.8000E+01
  -5.310  0.0000E+00  0.8000E+01
  -5.300  0.0000E+00  0.8000E+01
  -5.290  0.0000E+00  0.8000E+01
  -5.280  0.0000E+00  0.8000E+01
  -5.270  0.0000E+00  0.8000E+01
  -5.260  0.0000E+00  0.8000E+01
  -5.250  0.0000E+00  0.8000E+01
  -5.240  0.0000E+00  0.8000E+01
  -5.230  0.0000E+00  0.8000E+01
  -5.220  0.0000E+00  0.8000E+01
  -5.210  0.0000E+00  0.8000E+01
  -5.200  0.0000E+00  0.8000E+01
  -5.190  0.0000E+00  0.8000E+01
  -5.180  0.0000E+00  0.8000E+01
  -5.170  0.0000E+00  0.8000E+01
  -5.160  0.0000E+00  0.8000E+01
  -5.150  0.0000E+00  0.8000E+01
  -5.140  0.0000E+00  0.8000E+01
  -5.130  0.0000E+00  0.8000E+01
  -5.120  0.0000E+00  0.8000E+01
  -5.110  0.0000E+00  0.8000E+01
  -5.100  0.0000E+00  0.8000E+01
  -5.090  0.0000E+00  0.8000E+01
  -5.080  0.0000E+00  0.8000E+01
  -5.070  0.0000E+00  0.8000E+01
  -5.060  0.0000E+00  0.8000E+01
  -5.050  0.0000E+00  0.8000E+01
  -5.040  0.0000E+00  0.8000E+01
  -5.030  0.0000E+00  0.8000E+01
  -5.020  0.0000E+00  0.8000E+01
  -5.010  0.0000E+00  0.8000E+01
  -5.000  0.0000E+00  0.8000E+01
  -4.990  0.0000E+00  0.8000E+01
  -4.980  0.0000E+00  0.8000E+01
  -4.970  0.0000E+00  0.8000E+01
  -4.960  0.0000E+00  0.8000E+01
  -4.950  0.0000E+00  0.8000E+01
  -4.940  0.0000E+00  0.8000E+01
  -4.930  0.0000E+00  0.8000E+01
  -4.920  0.0000E+00  0.8000E+01
  -4.910  0.0000E+00  0.8000E+01
  -4.900  0.0000E+00  0.8000E+01
  -4.890  0.0000E+00  0.8000E+01
  -4.880  0.0000E+00  0.8000E+01
  -4.870  0.0000E+00  0.8000E+01
  -4.860  0.0000E+00  0.8000E+01
  -4.850  0.0000E+00  0.8000E+01
  -4.840  0.0000E+00  0.8000E+01
  -4.830  0.0000E+00  0.8000E+01
  -4.820  0.0000E+00  0.8000E+01
  -4.810  0.0000E+00  0.8000E+01
  -4.800  0.0000E+00  0.8000E+01
  -4.790  0.0000E+00  0.8000E+01
  -4.780  0.0000E+00  0.8000E+01
  -4.770  0.0000E+00  0.8000E+01
  -4.760  0.0000E+00  0.8000E+01
  -4.750  0.0000E+00  0.8000E+01
  -4.740  0.0000E+00  0.8000E+01
  -4.730  0.0000E+00  0.8000E+01
  -4.720  0.0000E+00  0.8000E+01
  -4.710  0.0000E+00  0.8000E+01
  -4.700  0.0000E+00  0.8000E+01
  -4.690  0.0000E+00  0.8000E+01
  -4.680  0.0000E+00  0.8000E+01
  -4.670  0.0000E+00  0.8000E+01
  -4.660  0.0000E+00  0.8000E+01
  -4.650  0.0000E+00  0.8000E+01
  -4.640  0.0000E+00  0.8000E+01
  -4.630  0.0000E+00  0.8000E+01
  -4.620  0.0000E+00  0.8000E+01
  -4.610  0.0000E+00  0.8000E+01
  -4.600  0.0000E+00  0.8000E+01
  -4.590  0.0000E+00  0.8000E+01
  -4.580  0.0000E+00  0.8000E+01
  -4.570  0.0000E+00  0.8000E+01
  -4.560  0.0000E+00  0.8000E+01
  -4.550  0.0000E+00  0.8000E+01
  -4.540  0.0000E+00  0.8000E+01
  -4.530  0.0000E+00  0.8000E+01
  -4.520  0.0000E+00  0.8000E+01
  -4.510  0.0000E+00  0.8000E+01
  -4.500  0.0000E+00  0.8000E+01
  -4.490  0.0000E+00  0.8000E+01
  -4.480  0.0000E+00  0.8000E+01
  -4.470  0.0000E+00  0.8000E+01
  -4.460  0.0000E+00  0.8000E+01
  -4.450  0.0000E+00  0.8000E+01
  -4.440  0.0000E+00  0.8000E+01
  -4.430  0.0000E+00  0.8000E+01
  -4.420  0.0000E+00  0.8000E+01
  -4.410  0.0000E+00  0.8000E+01
  -4.400  0.0000E+00  0.8000E+01
  -4.390  0.0000E+00  0.8000E+01
  -4.380  0.0000E+00  0.8000E+01
  -4.370  0.0000E+00  0.8000E+01
  -4.360  0.0000E+00  0.8000E+01
  -4.350  0.0000E+00  0.8000E+01
  -4.340  0.0000E+00  0.8000E+01
  -4.330  0.0000E+00  0.8000E+01
  -4.320  0.0000E+00  0.8000E+01
  -4.310  0.0000E+00  0.8000E+01
  -4.300  0.0000E+00  0.8000E+01
  -4.290  0.0000E+00  0.8000E+01
  -4.280  0.0000E+00  0.8000E+01
  -4.270  0.0000E+00  0.8000E+01
  -4.260  0.0000E+00  0.8000E+01
  -4.250  0.0000E+00  0.8000E+01
  -4.240  0.0000E+00  0.8000E+01
  -4.230  0.0000E+00  0.8000E+01
  -4.220  0.0000E+00  0.8000E+01
  -4.210  0.0000E+00  0.8000E+01
  -4.200  0.0000E+00  0.8000E+01
  -4.190  0.0000E+00  0.8000E+01
  -4.180  0.0000E+00  0.8000E+01
  -4.170  0.0000E+00  0.8000E+01
  -4.160  0.0000E+00  0.8000E+01
  -4.150  0.0000E+00  0.8000E+01
  -4.140  0.0000E+00  0.8000E+01
  -4.130  0.0000E+00  0.8000E+01
  -4.120  0.0000E+00  0.8000E+01
  -4.110  0.0000E+00  0.8000E+01
  -4.100  0.0000E+00  0.8000E+01
  -4.090  0.0000E+00  0.8000E+01
  -4.080  0.0000E+00  0.8000E+01
  -4.070  0.0000E+00  0.8000E+01
  -4.060  0.0000E+00  0.8000E+01
  -4.050  0.0000E+00  0.8000E+01
  -4.040  0.0000E+00  0.8000E+01
  -4.030  0.0000E+00  0.8000E+01
  -4.020  0.0000E+00  0.8000E+01
  -4.010  0.0000E+00  0.8000E+01
  -4.000  0.0000E+00  0.8000E+01
  -3.990  0.0000E+00  0.8000E+01
  -3.980  0.0000E+00  0.8000E+01
  -3.970  0.0000E+00  0.8000E+01
  -3.960  0.0000E+00  0.8000E+01
  -3.950  0.0000E+00  0.8000E+01
  -3.940  0.0000E+00  0.8000E+01
  -3.930  0.0000E+00  0.8000E+01
  -3.920  0.0000E+00  0.8000E+01
  -3.910  0.0000E+00  0.8000E+01
  -3.900  0.0000E+00  0.8000E+01
  -3.890  0.0000E+00  0.8000E+01
  -3.880  0.0000E+00  0.8000E+01
  -3.870  0.0000E+00  0.8000E+01
  -3.860  0.0000E+00  0.8000E+01
  -3.850  0.0000E+00  0.8000E+01
  -3.840  0.0000E+00  0.8000E+01
  -3.830  0.0000E+00  0.8000E+01
  -3.820  0.0000E+00  0.8000E+01
  -3.810  0.0000E+00  0.8000E+01
  -3.800  0.0000E+00  0.8000E+01
  -3.790  0.0000E+00  0.8000E+01
  -3.780  0.0000E+00  0.8000E+01
  -3.770  0.0000E+00  0.8000E+01
  -3.760  0.0000E+00  0.8000E+01
  -3.750  0.0000E+00  0.8000E+01
  -3.740  0.0000E+00  0.8000E+01
  -3.730  0.0000E+00  0.8000E+01
  -3.720  0.0000E+00  0.8000E+01
  -3.710  0.0000E+00  0.8000E+01
  -3.700  0.0000E+00  0.8000E+01
  -3.690  0.0000E+00  0.8000E+01
  -3.680  0.0000E+00  0.8000E+01
  -3.670  0.0000E+00  0.8000E+01
  -3.660  0.0000E+00  0.8000E+01
  -3.650  0.0000E+00  0.8000E+01
  -3.640  0.0000E+00  0.8000E+01
  -3.630  0.0000E+00  0.8000E+01
  -3.620  0.0000E+00  0.8000E+01
  -3.610  0.0000E+00  0.8000E+01
  -3.600  0.0000E+00  0.8000E+01
  -3.590  0.0000E+00  0.8000E+01
  -3.580  0.0000E+00  0.8000E+01
  -3.570  0.0000E+00  0.8000E+01
  -3.560  0.0000E+00  0.8000E+01
  -3.550  0.0000E+00  0.8000E+01
  -3.540  0.0000E+00  0.8000E+01
  -3.530  0.0000E+00  0.8000E+01
  -3.520  0.0000E+00  0.8000E+01
  -3.510  0.0000E+00  0.8000E+01
  -3.500  0.0000E+00  0.8000E+01
  -3.490  0.0000E+00  0.8000E+01
  -3.480  0.0000E+00  0.8000E+01
  -3.470  0.0000E+00  0.8000E+01
  -3.460  0.0000E+00  0.8000E+01
  -3.450  0.0000E+00  0.8000E+01
  -3.440  0.0000E+00  0.8000E+01
  -3.430  0.0000E+00  0.8000E+01
  -3.420  0.0000E+00  0.8000E+01
  -3.410  0.0000E+00  0.8000E+01
  -3.400  0.0000E+00  0.8000E+01
  -3.390  0.0000E+00  0.8000E+01
  -3.380  0.0000E+00  0.8000E+01
  -3.370  0.0000E+00  0.8000E+01
  -3.360  0.0000E+00  0.8000E+01
  -3.350  0.0000E+00  0.8000E+01
  -3.340  0.0000E+00  0.8000E+01
  -3.330  0.0000E+00  0.8000E+01
  -3.320  0.0000E+00  0.8000E+01
  -3.310  0.0000E+00  0.8000E+01
  -3.300  0.0000E+00  0.8000E+01
  -3.290  0.0000E+00  0.8000E+01
  -3.280  0.0000E+00  0.8000E+01
  -3.270  0.0000E+00  0.8000E+01
  -3.260  0.0000E+00  0.8000E+01
  -3.250  0.0000E+00  0.8000E+01
  -3.240  0.0000E+00  0.8000E+01
  -3.230  0.0000E+00  0.8000E+01
  -3.220  0.0000E+00  0.8000E+01
  -3.210  0.0000E+00  0.8000E+01
  -3.200  0.0000E+00  0.8000E+01
  -3.190  0.0000E+00  0.8000E+01
  -3.180  0.0000E+00  0.8000E+01
  -3.170  0.0000E+00  0.8000E+01
  -3.160  0.0000E+00  0.8000E+01
  -3.150  0.0000E+00  0.8000E+01
  -3.140  0.0000E+00  0.8000E+01
  -3.130  0.0000E+00  0.8000E+01
  -3.120  0.0000E+00  0.8000E+01
  -3.110  0.0000E+00  0.8000E+01
  -3.100  0.0000E+00  0.8000E+01
  -3.090  0.0000E+00  0.8000E+01
  -3.080  0.0000E+00  0.8000E+01
  -3.070  0.0000E+00  0.8000E+01
  -3.060  0.0000E+00  0.8000E+01
  -3.050  0.0000E+00  0.8000E+01
  -3.040  0.0000E+00  0.8000E+01
  -3.030  0.0000E+00  0.8000E+01
  -3.020  0.0000E+00  0.8000E+01
  -3.010  0.0000E+00  0.8000E+01
  -3.000  0.0000E+00  0.8000E+01
  -2.990  0.0000E+00  0.8000E+01
  -2.980  0.0000E+00  0.8000E+01
  -2.970  0.0000E+00  0.8000E+01
  -2.960  0.0000E+00  0.8000E+01
  -2.950  0.0000E+00  0.8000E+01
  -2.940  0.0000E+00  0.8000E+01
  -2.930  0.0000E+00  0.8000E+01
  -2.920  0.0000E+00  0.8000E+01
  -2.910  0.0000E+00  0.8000E+01
  -2.900  0.0000E+00  0.8000E+01
  -2.890  0.0000E+00  0.8000E+01
  -2.880  0.0000E+00  0.8000E+01
  -2.870  0.0000E+00  0.8000E+01
  -2.860  0.0000E+00  0.8000E+01
  -2.850  0.0000E+00  0.8000E+01
  -2.840  0.0000E+00  0.8000E+01
  -2.830  0.0000E+00  0.8000E+01
  -2.820  0.0000E+00  0.8000E+01
  -2.810  0.0000E+00  0.8000E+01
  -2.800  0.0000E+00  0.8000E+01
  -2.790  0.0000E+00  0.8000E+01
  -2.780  0.0000E+00  0.8000E+01
  -2.770  0.0000E+00  0.8000E+01
  -2.760  0.0000E+00  0.8000E+01
  -2.750  0.0000E+00  0.8000E+01
  -2.740  0.0000E+00  0.8000E+01
  -2.730  0.5537E+00  0.8002E+01
  -2.720  0.1429E+01  0.8012E+01
  -2.710  0.1818E+01  0.8029E+01
  -2.700  0.2182E+01  0.8049E+01
  -2.690  0.2573E+01  0.8072E+01
  -2.680  0.3009E+01  0.8100E+01
  -2.670  0.3502E+01  0.8133E+01
  -2.660  0.3894E+01  0.8170E+01
  -2.650  0.4376E+01  0.8211E+01
  -2.640  0.5039E+01  0.8258E+01
  -2.630  0.6303E+01  0.8313E+01
  -2.620  0.6904E+01  0.8380E+01
  -2.610  0.6573E+01  0.8448E+01
  -2.600  0.6572E+01  0.8514E+01
  -2.590  0.6536E+01  0.8579E+01
  -2.580  0.6522E+01  0.8645E+01
  -2.570  0.6444E+01  0.8710E+01
  -2.560  0.6226E+01  0.8773E+01
  -2.550  0.6155E+01  0.8835E+01
  -2.540  0.6107E+01  0.8896E+01
  -2.530  0.6065E+01  0.8957E+01
  -2.520  0.6033E+01  0.9018E+01
  -2.510  0.6011E+01  0.9078E+01
  -2.500  0.5927E+01  0.9138E+01
  -2.490  0.5269E+01  0.9194E+01
  -2.480  0.4859E+01  0.9244E+01
  -2.470  0.4659E+01  0.9291E+01
  -2.460  0.4473E+01  0.9337E+01
  -2.450  0.4295E+01  0.9381E+01
  -2.440  0.4129E+01  0.9423E+01
  -2.430  0.4039E+01  0.9464E+01
  -2.420  0.3952E+01  0.9504E+01
  -2.410  0.3872E+01  0.9543E+01
  -2.400  0.3789E+01  0.9581E+01
  -2.390  0.3697E+01  0.9618E+01
  -2.380  0.3615E+01  0.9655E+01
  -2.370  0.3517E+01  0.9691E+01
  -2.360  0.3440E+01  0.9725E+01
  -2.350  0.3383E+01  0.9760E+01
  -2.340  0.3350E+01  0.9793E+01
  -2.330  0.3308E+01  0.9827E+01
  -2.320  0.3264E+01  0.9859E+01
  -2.310  0.3219E+01  0.9892E+01
  -2.300  0.3173E+01  0.9924E+01
  -2.290  0.3129E+01  0.9955E+01
  -2.280  0.3083E+01  0.9986E+01
  -2.270  0.3031E+01  0.1002E+02
  -2.260  0.2995E+01  0.1005E+02
  -2.250  0.2964E+01  0.1008E+02
  -2.240  0.2966E+01  0.1011E+02
  -2.230  0.2929E+01  0.1014E+02
  -2.220  0.2888E+01  0.1017E+02
  -2.210  0.2857E+01  0.1019E+02
  -2.200  0.2828E+01  0.1022E+02
  -2.190  0.2805E+01  0.1025E+02
  -2.180  0.2794E+01  0.1028E+02
  -2.170  0.2773E+01  0.1031E+02
  -2.160  0.2751E+01  0.1033E+02
  -2.150  0.2728E+01  0.1036E+02
  -2.140  0.2702E+01  0.1039E+02
  -2.130  0.2677E+01  0.1042E+02
  -2.120  0.2659E+01  0.1044E+02
  -2.110  0.2641E+01  0.1047E+02
  -2.100  0.2623E+01  0.1049E+02
  -2.090  0.2624E+01  0.1052E+02
  -2.080  0.2629E+01  0.1055E+02
  -2.070  0.2603E+01  0.1057E+02
  -2.060  0.2584E+01  0.1060E+02
  -2.050  0.2567E+01  0.1063E+02
  -2.040  0.2552E+01  0.1065E+02
  -2.030  0.2537E+01  0.1068E+02
  -2.020  0.2528E+01  0.1070E+02
  -2.010  0.2529E+01  0.1073E+02
  -2.000  0.2521E+01  0.1075E+02
  -1.990  0.2513E+01  0.1078E+02
  -1.980  0.2505E+01  0.1080E+02
  -1.970  0.2493E+01  0.1083E+02
  -1.960  0.2482E+01  0.1085E+02
  -1.950  0.2475E+01  0.1088E+02
  -1.940  0.2465E+01  0.1090E+02
  -1.930  0.2462E+01  0.1093E+02
  -1.920  0.2469E+01  0.1095E+02
  -1.910  0.2482E+01  0.1098E+02
  -1.900  0.2474E+01  0.1100E+02
  -1.890  0.2467E+01  0.1103E+02
  -1.880  0.2465E+01  0.1105E+02
  -1.870  0.2461E+01  0.1107E+02
  -1.860  0.2456E+01  0.1110E+02
  -1.850  0.2452E+01  0.1112E+02
  -1.840  0.2468E+01  0.1115E+02
  -1.830  0.2476E+01  0.1117E+02
  -1.820  0.2480E+01  0.1120E+02
  -1.810  0.2483E+01  0.1122E+02
  -1.800  0.2484E+01  0.1125E+02
  -1.790  0.2484E+01  0.1127E+02
  -1.780  0.2489E+01  0.1130E+02
  -1.770  0.2500E+01  0.1132E+02
  -1.760  0.2513E+01  0.1135E+02
  -1.750  0.2529E+01  0.1137E+02
  -1.740  0.2556E+01  0.1140E+02
  -1.730  0.2591E+01  0.1142E+02
  -1.720  0.2600E+01  0.1145E+02
  -1.710  0.2616E+01  0.1148E+02
  -1.700  0.2631E+01  0.1150E+02
  -1.690  0.2664E+01  0.1153E+02
  -1.680  0.2704E+01  0.1155E+02
  -1.670  0.2739E+01  0.1158E+02
  -1.660  0.2777E+01  0.1161E+02
  -1.650  0.2821E+01  0.1164E+02
  -1.640  0.2884E+01  0.1167E+02
  -1.630  0.2947E+01  0.1170E+02
  -1.620  0.3034E+01  0.1173E+02
  -1.610  0.3131E+01  0.1176E+02
  -1.600  0.3251E+01  0.1179E+02
  -1.590  0.3394E+01  0.1182E+02
  -1.580  0.3550E+01  0.1186E+02
  -1.570  0.5131E+01  0.1190E+02
  -1.560  0.6265E+01  0.1196E+02
  -1.550  0.7413E+01  0.1202E+02
  -1.540  0.9023E+01  0.1211E+02
  -1.530  0.1165E+02  0.1221E+02
  -1.520  0.9802E+01  0.1232E+02
  -1.510  0.8862E+01  0.1241E+02
  -1.500  0.9984E+01  0.1250E+02
  -1.490  0.9528E+01  0.1260E+02
  -1.480  0.1233E+02  0.1271E+02
  -1.470  0.1507E+02  0.1286E+02
  -1.460  0.1324E+02  0.1299E+02
  -1.450  0.1014E+02  0.1310E+02
  -1.440  0.8787E+01  0.1320E+02
  -1.430  0.8437E+01  0.1328E+02
  -1.420  0.9584E+01  0.1337E+02
  -1.410  0.7240E+01  0.1346E+02
  -1.400  0.6350E+01  0.1353E+02
  -1.390  0.4982E+01  0.1358E+02
  -1.380  0.4433E+01  0.1363E+02
  -1.370  0.4119E+01  0.1367E+02
  -1.360  0.4131E+01  0.1371E+02
  -1.350  0.4873E+01  0.1376E+02
  -1.340  0.5049E+01  0.1381E+02
  -1.330  0.4923E+01  0.1386E+02
  -1.320  0.4753E+01  0.1391E+02
  -1.310  0.4657E+01  0.1395E+02
  -1.300  0.4114E+01  0.1400E+02
  -1.290  0.3822E+01  0.1404E+02
  -1.280  0.4023E+01  0.1408E+02
  -1.270  0.3830E+01  0.1411E+02
  -1.260  0.3861E+01  0.1415E+02
  -1.250  0.3847E+01  0.1419E+02
  -1.240  0.3876E+01  0.1423E+02
  -1.230  0.3928E+01  0.1427E+02
  -1.220  0.4055E+01  0.1431E+02
  -1.210  0.4157E+01  0.1435E+02
  -1.200  0.4375E+01  0.1439E+02
  -1.190  0.4605E+01  0.1444E+02
  -1.180  0.4864E+01  0.1448E+02
  -1.170  0.5227E+01  0.1453E+02
  -1.160  0.5873E+01  0.1459E+02
  -1.150  0.6500E+01  0.1465E+02
  -1.140  0.6791E+01  0.1472E+02
  -1.130  0.6926E+01  0.1479E+02
  -1.120  0.6958E+01  0.1486E+02
  -1.110  0.7159E+01  0.1493E+02
  -1.100  0.7405E+01  0.1500E+02
  -1.090  0.7855E+01  0.1508E+02
  -1.080  0.7966E+01  0.1516E+02
  -1.070  0.7973E+01  0.1524E+02
  -1.060  0.8091E+01  0.1532E+02
  -1.050  0.8093E+01  0.1540E+02
  -1.040  0.8149E+01  0.1548E+02
  -1.030  0.8217E+01  0.1556E+02
  -1.020  0.8174E+01  0.1564E+02
  -1.010  0.8443E+01  0.1573E+02
  -1.000  0.8222E+01  0.1581E+02
  -0.990  0.7497E+01  0.1589E+02
  -0.980  0.6938E+01  0.1596E+02
  -0.970  0.6922E+01  0.1603E+02
  -0.960  0.6920E+01  0.1610E+02
  -0.950  0.6966E+01  0.1617E+02
  -0.940  0.7050E+01  0.1624E+02
  -0.930  0.7119E+01  0.1631E+02
  -0.920  0.7242E+01  0.1638E+02
  -0.910  0.7353E+01  0.1645E+02
  -0.900  0.7559E+01  0.1653E+02
  -0.890  0.7810E+01  0.1661E+02
  -0.880  0.8406E+01  0.1669E+02
  -0.870  0.1107E+02  0.1678E+02
  -0.860  0.1107E+02  0.1689E+02
  -0.850  0.1174E+02  0.1700E+02
  -0.840  0.1307E+02  0.1713E+02
  -0.830  0.1460E+02  0.1727E+02
  -0.820  0.1659E+02  0.1742E+02
  -0.810  0.1643E+02  0.1759E+02
  -0.800  0.1300E+02  0.1774E+02
  -0.790  0.1271E+02  0.1786E+02
  -0.780  0.1412E+02  0.1799E+02
  -0.770  0.1322E+02  0.1813E+02
  -0.760  0.1260E+02  0.1826E+02
  -0.750  0.1215E+02  0.1838E+02
  -0.740  0.1262E+02  0.1850E+02
  -0.730  0.1314E+02  0.1863E+02
  -0.720  0.1275E+02  0.1876E+02
  -0.710  0.1203E+02  0.1889E+02
  -0.700  0.1191E+02  0.1901E+02
  -0.690  0.1210E+02  0.1913E+02
  -0.680  0.1297E+02  0.1925E+02
  -0.670  0.1426E+02  0.1939E+02
  -0.660  0.1525E+02  0.1954E+02
  -0.650  0.1434E+02  0.1968E+02
  -0.640  0.1757E+02  0.1984E+02
  -0.630  0.1688E+02  0.2001E+02
  -0.620  0.2233E+02  0.2021E+02
  -0.610  0.2181E+02  0.2043E+02
  -0.600  0.1986E+02  0.2064E+02
  -0.590  0.1906E+02  0.2083E+02
  -0.580  0.1855E+02  0.2102E+02
  -0.570  0.1840E+02  0.2121E+02
  -0.560  0.1867E+02  0.2139E+02
  -0.550  0.1703E+02  0.2158E+02
  -0.540  0.1618E+02  0.2174E+02
  -0.530  0.1516E+02  0.2190E+02
  -0.520  0.1481E+02  0.2205E+02
  -0.510  0.1482E+02  0.2220E+02
  -0.500  0.1398E+02  0.2234E+02
  -0.490  0.1356E+02  0.2248E+02
  -0.480  0.1343E+02  0.2261E+02
  -0.470  0.1332E+02  0.2274E+02
  -0.460  0.1324E+02  0.2288E+02
  -0.450  0.1307E+02  0.2301E+02
  -0.440  0.1309E+02  0.2314E+02
  -0.430  0.1351E+02  0.2327E+02
  -0.420  0.1361E+02  0.2341E+02
  -0.410  0.1315E+02  0.2354E+02
  -0.400  0.1279E+02  0.2367E+02
  -0.390  0.1234E+02  0.2380E+02
  -0.380  0.1197E+02  0.2392E+02
  -0.370  0.1166E+02  0.2404E+02
  -0.360  0.1109E+02  0.2415E+02
  -0.350  0.1080E+02  0.2426E+02
  -0.340  0.1055E+02  0.2437E+02
  -0.330  0.1014E+02  0.2447E+02
  -0.320  0.9823E+01  0.2457E+02
  -0.310  0.9498E+01  0.2467E+02
  -0.300  0.9243E+01  0.2476E+02
  -0.290  0.8974E+01  0.2485E+02
  -0.280  0.8717E+01  0.2494E+02
  -0.270  0.8455E+01  0.2503E+02
  -0.260  0.8283E+01  0.2511E+02
  -0.250  0.8001E+01  0.2519E+02
  -0.240  0.7858E+01  0.2527E+02
  -0.230  0.7529E+01  0.2535E+02
  -0.220  0.6989E+01  0.2542E+02
  -0.210  0.6520E+01  0.2549E+02
  -0.200  0.6971E+01  0.2555E+02
  -0.190  0.6882E+01  0.2562E+02
  -0.180  0.6703E+01  0.2569E+02
  -0.170  0.5728E+01  0.2576E+02
  -0.160  0.3686E+01  0.2580E+02
  -0.150  0.1374E+01  0.2583E+02
  -0.140  0.1310E+01  0.2584E+02
  -0.130  0.1267E+01  0.2586E+02
  -0.120  0.1244E+01  0.2587E+02
  -0.110  0.1200E+01  0.2588E+02
  -0.100  0.1144E+01  0.2589E+02
  -0.090  0.1110E+01  0.2590E+02
  -0.080  0.1138E+01  0.2592E+02
  -0.070  0.9872E+00  0.2593E+02
  -0.060  0.7528E+00  0.2594E+02
  -0.050  0.6250E+00  0.2594E+02
  -0.040  0.5354E+00  0.2595E+02
  -0.030  0.4668E+00  0.2595E+02
  -0.020  0.4127E+00  0.2596E+02
  -0.010  0.3679E+00  0.2596E+02
   0.000  0.3303E+00  0.2596E+02
   0.010  0.2990E+00  0.2597E+02
   0.020  0.2718E+00  0.2597E+02
   0.030  0.2487E+00  0.2597E+02
   0.040  0.2281E+00  0.2598E+02
   0.050  0.2086E+00  0.2598E+02
   0.060  0.1920E+00  0.2598E+02
   0.070  0.1783E+00  0.2598E+02
   0.080  0.1657E+00  0.2598E+02
   0.090  0.1531E+00  0.2598E+02
   0.100  0.1410E+00  0.2599E+02
   0.110  0.1307E+00  0.2599E+02
   0.120  0.1219E+00  0.2599E+02
   0.130  0.1135E+00  0.2599E+02
   0.140  0.1054E+00  0.2599E+02
   0.150  0.9742E-01  0.2599E+02
   0.160  0.8981E-01  0.2599E+02
   0.170  0.8293E-01  0.2599E+02
   0.180  0.7656E-01  0.2599E+02
   0.190  0.7037E-01  0.2600E+02
   0.200  0.6467E-01  0.2600E+02
   0.210  0.5950E-01  0.2600E+02
   0.220  0.5425E-01  0.2600E+02
   0.230  0.4829E-01  0.2600E+02
   0.240  0.4189E-01  0.2600E+02
   0.250  0.3612E-01  0.2600E+02
   0.260  0.3189E-01  0.2600E+02
   0.270  0.2829E-01  0.2600E+02
   0.280  0.2056E-01  0.2600E+02
   0.290  0.8942E-02  0.2600E+02
   0.300  0.1538E-02  0.2600E+02
   0.310  0.0000E+00  0.2600E+02
   0.320  0.0000E+00  0.2600E+02
   0.330  0.0000E+00  0.2600E+02
   0.340  0.0000E+00  0.2600E+02
   0.350  0.0000E+00  0.2600E+02
   0.360  0.0000E+00  0.2600E+02
   0.370  0.0000E+00  0.2600E+02
   0.380  0.0000E+00  0.2600E+02
   0.390  0.0000E+00  0.2600E+02
   0.400  0.0000E+00  0.2600E+02
   0.410  0.0000E+00  0.2600E+02
   0.420  0.0000E+00  0.2600E+02
   0.430  0.0000E+00  0.2600E+02
   0.440  0.0000E+00  0.2600E+02
   0.450  0.0000E+00  0.2600E+02
   0.460  0.0000E+00  0.2600E+02
   0.470  0.0000E+00  0.2600E+02
   0.480  0.0000E+00  0.2600E+02
   0.490  0.0000E+00  0.2600E+02
   0.500  0.0000E+00  0.2600E+02
   0.510  0.0000E+00  0.2600E+02
   0.520  0.0000E+00  0.2600E+02
   0.530  0.0000E+00  0.2600E+02
   0.540  0.0000E+00  0.2600E+02
   0.550  0.0000E+00  0.2600E+02
   0.560  0.0000E+00  0.2600E+02
   0.570  0.0000E+00  0.2600E+02
   0.580  0.0000E+00  0.2600E+02
   0.590  0.0000E+00  0.2600E+02
   0.600  0.0000E+00  0.2600E+02
   0.610  0.0000E+00  0.2600E+02
   0.620  0.0000E+00  0.2600E+02
   0.630  0.0000E+00  0.2600E+02
   0.640  0.0000E+00  0.2600E+02
   0.650  0.0000E+00  0.2600E+02
   0.660  0.0000E+00  0.2600E+02
   0.670  0.0000E+00  0.2600E+02
   0.680  0.0000E+00  0.2600E+02
   0.690  0.0000E+00  0.2600E+02
   0.700  0.0000E+00  0.2600E+02
   0.710  0.0000E+00  0.2600E+02
   0.720  0.0000E+00  0.2600E+02
   0.730  0.0000E+00  0.2600E+02
   0.740  0.0000E+00  0.2600E+02
   0.750  0.0000E+00  0.2600E+02
   0.760  0.0000E+00  0.2600E+02
   0.770  0.0000E+00  0.2600E+02
   0.780  0.0000E+00  0.2600E+02
   0.790  0.0000E+00  0.2600E+02
   0.800  0.0000E+00  0.2600E+02
   0.810  0.0000E+00  0.2600E+02
   0.820  0.0000E+00  0.2600E+02
   0.830  0.0000E+00  0.2600E+02
   0.840  0.0000E+00  0.2600E+02
   0.850  0.0000E+00  0.2600E+02
   0.860  0.0000E+00  0.2600E+02
   0.870  0.0000E+00  0.2600E+02
   0.880  0.0000E+00  0.2600E+02
   0.890  0.0000E+00  0.2600E+02
   0.900  0.0000E+00  0.2600E+02
   0.910  0.0000E+00  0.2600E+02
   0.920  0.0000E+00  0.2600E+02
   0.930  0.0000E+00  0.2600E+02
   0.940  0.0000E+00  0.2600E+02
   0.950  0.0000E+00  0.2600E+02
   0.960  0.0000E+00  0.2600E+02
   0.970  0.0000E+00  0.2600E+02
   0.980  0.0000E+00  0.2600E+02
   0.990  0.0000E+00  0.2600E+02
   1.000  0.0000E+00  0.2600E+02
   1.010  0.0000E+00  0.2600E+02
   1.020  0.0000E+00  0.2600E+02
   1.030  0.0000E+00  0.2600E+02
   1.040  0.0000E+00  0.2600E+02
   1.050  0.0000E+00  0.2600E+02
   1.060  0.0000E+00  0.2600E+02
   1.070  0.0000E+00  0.2600E+02
   1.080  0.0000E+00  0.2600E+02
   1.090  0.0000E+00  0.2600E+02
   1.100  0.0000E+00  0.2600E+02
   1.110  0.0000E+00  0.2600E+02
   1.120  0.0000E+00  0.2600E+02
   1.130  0.0000E+00  0.2600E+02
   1.140  0.0000E+00  0.2600E+02
   1.150  0.0000E+00  0.2600E+02
   1.160  0.0000E+00  0.2600E+02
   1.170  0.0000E+00  0.2600E+02
   1.180  0.0000E+00  0.2600E+02
   1.190  0.0000E+00  0.2600E+02
   1.200  0.0000E+00  0.2600E+02
   1.210  0.0000E+00  0.2600E+02
   1.220  0.0000E+00  0.2600E+02
   1.230  0.0000E+00  0.2600E+02
   1.240  0.0000E+00  0.2600E+02
   1.250  0.0000E+00  0.2600E+02
   1.260  0.0000E+00  0.2600E+02
   1.270  0.0000E+00  0.2600E+02
   1.280  0.0000E+00  0.2600E+02
   1.290  0.0000E+00  0.2600E+02
   1.300  0.0000E+00  0.2600E+02
   1.310  0.0000E+00  0.2600E+02
   1.320  0.0000E+00  0.2600E+02
   1.330  0.0000E+00  0.2600E+02
   1.340  0.0000E+00  0.2600E+02
   1.350  0.0000E+00  0.2600E+02
   1.360  0.0000E+00  0.2600E+02
   1.370  0.0000E+00  0.2600E+02
   1.380  0.0000E+00  0.2600E+02
   1.390  0.0000E+00  0.2600E+02
   1.400  0.0000E+00  0.2600E+02
   1.410  0.0000E+00  0.2600E+02
   1.420  0.0000E+00  0.2600E+02
   1.430  0.0000E+00  0.2600E+02
   1.440  0.0000E+00  0.2600E+02
   1.450  0.0000E+00  0.2600E+02
   1.460  0.0000E+00  0.2600E+02
   1.470  0.0000E+00  0.2600E+02
   1.480  0.0000E+00  0.2600E+02
   1.490  0.0000E+00  0.2600E+02
   1.500  0.0000E+00  0.2600E+02
   1.510  0.0000E+00  0.2600E+02
   1.520  0.0000E+00  0.2600E+02
   1.530  0.0000E+00  0.2600E+02
   1.540  0.0000E+00  0.2600E+02
   1.550  0.0000E+00  0.2600E+02
   1.560  0.0000E+00  0.2600E+02
   1.570  0.0000E+00  0.2600E+02
   1.580  0.0000E+00  0.2600E+02
   1.590  0.0000E+00  0.2600E+02
   1.600  0.0000E+00  0.2600E+02
   1.610  0.0000E+00  0.2600E+02
   1.620  0.0000E+00  0.2600E+02
   1.630  0.0000E+00  0.2600E+02
   1.640  0.0000E+00  0.2600E+02
   1.650  0.0000E+00  0.2600E+02
   1.660  0.0000E+00  0.2600E+02
   1.670  0.0000E+00  0.2600E+02
   1.680  0.0000E+00  0.2600E+02
   1.690  0.0000E+00  0.2600E+02
   1.700  0.0000E+00  0.2600E+02
   1.710  0.0000E+00  0.2600E+02
   1.720  0.0000E+00  0.2600E+02
   1.730  0.0000E+00  0.2600E+02
   1.740  0.0000E+00  0.2600E+02
   1.750  0.0000E+00  0.2600E+02
   1.760  0.0000E+00  0.2600E+02
   1.770  0.0000E+00  0.2600E+02
   1.780  0.0000E+00  0.2600E+02
   1.790  0.0000E+00  0.2600E+02
   1.800  0.0000E+00  0.2600E+02
   1.810  0.0000E+00  0.2600E+02
   1.820  0.0000E+00  0.2600E+02
   1.830  0.0000E+00  0.2600E+02
   1.840  0.0000E+00  0.2600E+02
   1.850  0.0000E+00  0.2600E+02
   1.860  0.0000E+00  0.2600E+02
   1.870  0.0000E+00  0.2600E+02
   1.880  0.0000E+00  0.2600E+02
   1.890  0.0000E+00  0.2600E+02
   1.900  0.0000E+00  0.2600E+02
   1.910  0.0000E+00  0.2600E+02
   1.920  0.0000E+00  0.2600E+02
   1.930  0.0000E+00  0.2600E+02
   1.940  0.0000E+00  0.2600E+02
   1.950  0.0000E+00  0.2600E+02
   1.960  0.0000E+00  0.2600E+02
   1.970  0.0000E+00  0.2600E+02
   1.980  0.0000E+00  0.2600E+02
   1.990  0.0000E+00  0.2600E+02
   2.000  0.0000E+00  0.2600E+02
   2.010  0.0000E+00  0.2600E+02
   2.020  0.0000E+00  0.2600E+02
   2.030  0.7810E-01  0.2600E+02
   2.040  0.1134E+00  0.2600E+02
   2.050  0.1570E+00  0.2600E+02
   2.060  0.2144E+00  0.2600E+02
   2.070  0.2696E+00  0.2601E+02
   2.080  0.3663E+00  0.2601E+02
   2.090  0.4052E+00  0.2601E+02
   2.100  0.4105E+00  0.2602E+02
   2.110  0.4406E+00  0.2602E+02
   2.120  0.4672E+00  0.2603E+02
   2.130  0.4967E+00  0.2603E+02
   2.140  0.5293E+00  0.2604E+02
   2.150  0.5612E+00  0.2604E+02
   2.160  0.5958E+00  0.2605E+02
   2.170  0.6320E+00  0.2605E+02
   2.180  0.6685E+00  0.2606E+02
   2.190  0.7066E+00  0.2607E+02
   2.200  0.7468E+00  0.2607E+02
   2.210  0.7887E+00  0.2608E+02
   2.220  0.8313E+00  0.2609E+02
   2.230  0.9086E+00  0.2610E+02
   2.240  0.9560E+00  0.2611E+02
   2.250  0.9991E+00  0.2612E+02
   2.260  0.1029E+01  0.2613E+02
   2.270  0.1072E+01  0.2614E+02
   2.280  0.1119E+01  0.2615E+02
   2.290  0.1171E+01  0.2616E+02
   2.300  0.1225E+01  0.2617E+02
   2.310  0.1283E+01  0.2619E+02
   2.320  0.1347E+01  0.2620E+02
   2.330  0.1416E+01  0.2621E+02
   2.340  0.1492E+01  0.2623E+02
   2.350  0.1575E+01  0.2624E+02
   2.360  0.1668E+01  0.2626E+02
   2.370  0.1784E+01  0.2628E+02
   2.380  0.1931E+01  0.2629E+02
   2.390  0.2216E+01  0.2632E+02
   2.400  0.2303E+01  0.2634E+02
   2.410  0.2423E+01  0.2636E+02
   2.420  0.2502E+01  0.2639E+02
   2.430  0.2569E+01  0.2641E+02
   2.440  0.2475E+01  0.2644E+02
   2.450  0.2446E+01  0.2646E+02
   2.460  0.2473E+01  0.2649E+02
   2.470  0.2493E+01  0.2651E+02
   2.480  0.2498E+01  0.2654E+02
   2.490  0.2507E+01  0.2656E+02
   2.500  0.2525E+01  0.2659E+02
   2.510  0.2544E+01  0.2661E+02
   2.520  0.2562E+01  0.2664E+02
   2.530  0.2579E+01  0.2666E+02
   2.540  0.2595E+01  0.2669E+02
   2.550  0.2615E+01  0.2671E+02
   2.560  0.2631E+01  0.2674E+02
   2.570  0.2605E+01  0.2677E+02
   2.580  0.2571E+01  0.2679E+02
   2.590  0.2585E+01  0.2682E+02
   2.600  0.2599E+01  0.2684E+02
   2.610  0.2618E+01  0.2687E+02
   2.620  0.2634E+01  0.2690E+02
   2.630  0.2655E+01  0.2692E+02
   2.640  0.2677E+01  0.2695E+02
   2.650  0.2699E+01  0.2698E+02
   2.660  0.2681E+01  0.2700E+02
   2.670  0.2551E+01  0.2703E+02
   2.680  0.2422E+01  0.2705E+02
   2.690  0.2291E+01  0.2708E+02
   2.700  0.2200E+01  0.2710E+02
   2.710  0.2173E+01  0.2712E+02
   2.720  0.2167E+01  0.2714E+02
   2.730  0.2151E+01  0.2717E+02
   2.740  0.2129E+01  0.2719E+02
   2.750  0.2121E+01  0.2721E+02
   2.760  0.2050E+01  0.2723E+02
   2.770  0.1991E+01  0.2725E+02
   2.780  0.1914E+01  0.2727E+02
   2.790  0.1884E+01  0.2729E+02
   2.800  0.1852E+01  0.2731E+02
   2.810  0.1825E+01  0.2732E+02
   2.820  0.1812E+01  0.2734E+02
   2.830  0.1800E+01  0.2736E+02
   2.840  0.1787E+01  0.2738E+02
   2.850  0.1775E+01  0.2740E+02
   2.860  0.1764E+01  0.2741E+02
   2.870  0.1752E+01  0.2743E+02
   2.880  0.1740E+01  0.2745E+02
   2.890  0.1729E+01  0.2747E+02
   2.900  0.1717E+01  0.2748E+02
   2.910  0.1706E+01  0.2750E+02
   2.920  0.1694E+01  0.2752E+02
   2.930  0.1683E+01  0.2753E+02
   2.940  0.1671E+01  0.2755E+02
   2.950  0.1659E+01  0.2757E+02
   2.960  0.1647E+01  0.2758E+02
   2.970  0.1632E+01  0.2760E+02
   2.980  0.1621E+01  0.2762E+02
   2.990  0.1624E+01  0.2763E+02
   3.000  0.1629E+01  0.2765E+02
   3.010  0.1627E+01  0.2767E+02
   3.020  0.1620E+01  0.2768E+02
   3.030  0.1591E+01  0.2770E+02
   3.040  0.1594E+01  0.2771E+02
   3.050  0.1595E+01  0.2773E+02
   3.060  0.1569E+01  0.2775E+02
   3.070  0.1555E+01  0.2776E+02
   3.080  0.1544E+01  0.2778E+02
   3.090  0.1535E+01  0.2779E+02
   3.100  0.1528E+01  0.2781E+02
   3.110  0.1523E+01  0.2782E+02
   3.120  0.1518E+01  0.2784E+02
   3.130  0.1513E+01  0.2785E+02
   3.140  0.1507E+01  0.2787E+02
   3.150  0.1501E+01  0.2788E+02
   3.160  0.1496E+01  0.2790E+02
   3.170  0.1490E+01  0.2791E+02
   3.180  0.1484E+01  0.2793E+02
   3.190  0.1478E+01  0.2794E+02
   3.200  0.1472E+01  0.2796E+02
   3.210  0.1469E+01  0.2797E+02
   3.220  0.1467E+01  0.2799E+02
   3.230  0.1464E+01  0.2800E+02
   3.240  0.1461E+01  0.2802E+02
   3.250  0.1461E+01  0.2803E+02
   3.260  0.1462E+01  0.2805E+02
   3.270  0.1471E+01  0.2806E+02
   3.280  0.1478E+01  0.2808E+02
   3.290  0.1464E+01  0.2809E+02
   3.300  0.1448E+01  0.2810E+02
   3.310  0.1423E+01  0.2812E+02
   3.320  0.1417E+01  0.2813E+02
   3.330  0.1436E+01  0.2815E+02
   3.340  0.1445E+01  0.2816E+02
   3.350  0.1451E+01  0.2818E+02
   3.360  0.1456E+01  0.2819E+02
   3.370  0.1475E+01  0.2821E+02
   3.380  0.1485E+01  0.2822E+02
   3.390  0.1488E+01  0.2824E+02
   3.400  0.1500E+01  0.2825E+02
   3.410  0.1505E+01  0.2827E+02
   3.420  0.1503E+01  0.2828E+02
   3.430  0.1509E+01  0.2830E+02
   3.440  0.1517E+01  0.2831E+02
   3.450  0.1525E+01  0.2833E+02
   3.460  0.1532E+01  0.2834E+02
   3.470  0.1537E+01  0.2836E+02
   3.480  0.1544E+01  0.2837E+02
   3.490  0.1549E+01  0.2839E+02
   3.500  0.1556E+01  0.2840E+02
   3.510  0.1563E+01  0.2842E+02
   3.520  0.1571E+01  0.2843E+02
   3.530  0.1578E+01  0.2845E+02
   3.540  0.1584E+01  0.2847E+02
   3.550  0.1590E+01  0.2848E+02
   3.560  0.1600E+01  0.2850E+02
   3.570  0.1615E+01  0.2851E+02
   3.580  0.1635E+01  0.2853E+02
   3.590  0.1632E+01  0.2855E+02
   3.600  0.1626E+01  0.2856E+02
   3.610  0.1617E+01  0.2858E+02
   3.620  0.1598E+01  0.2859E+02
   3.630  0.1603E+01  0.2861E+02
   3.640  0.1629E+01  0.2863E+02
   3.650  0.1651E+01  0.2864E+02
   3.660  0.1667E+01  0.2866E+02
   3.670  0.1680E+01  0.2868E+02
   3.680  0.1693E+01  0.2869E+02
   3.690  0.1703E+01  0.2871E+02
   3.700  0.1690E+01  0.2873E+02
   3.710  0.1690E+01  0.2874E+02
   3.720  0.1693E+01  0.2876E+02
   3.730  0.1696E+01  0.2878E+02
   3.740  0.1703E+01  0.2880E+02
   3.750  0.1707E+01  0.2881E+02
   3.760  0.1709E+01  0.2883E+02
   3.770  0.1715E+01  0.2885E+02
   3.780  0.1724E+01  0.2886E+02
   3.790  0.1732E+01  0.2888E+02
   3.800  0.1739E+01  0.2890E+02
   3.810  0.1749E+01  0.2892E+02
   3.820  0.1758E+01  0.2893E+02
   3.830  0.1767E+01  0.2895E+02
   3.840  0.1776E+01  0.2897E+02
   3.850  0.1786E+01  0.2899E+02
   3.860  0.1798E+01  0.2900E+02
   3.870  0.1812E+01  0.2902E+02
   3.880  0.1830E+01  0.2904E+02
   3.890  0.1860E+01  0.2906E+02
   3.900  0.1863E+01  0.2908E+02
   3.910  0.1868E+01  0.2910E+02
   3.920  0.1878E+01  0.2911E+02
   3.930  0.1888E+01  0.2913E+02
   3.940  0.1914E+01  0.2915E+02
   3.950  0.1965E+01  0.2917E+02
   3.960  0.2072E+01  0.2919E+02
   3.970  0.2267E+01  0.2921E+02
   3.980  0.2458E+01  0.2924E+02
   3.990  0.2428E+01  0.2926E+02
   4.000  0.2273E+01  0.2929E+02
   4.010  0.1999E+01  0.2931E+02
   4.020  0.1783E+01  0.2933E+02
   4.030  0.1730E+01  0.2934E+02
   4.040  0.1823E+01  0.2936E+02
   4.050  0.1837E+01  0.2938E+02
   4.060  0.1828E+01  0.2940E+02
   4.070  0.1827E+01  0.2942E+02
   4.080  0.1828E+01  0.2943E+02
   4.090  0.1835E+01  0.2945E+02
   4.100  0.1864E+01  0.2947E+02
   4.110  0.1911E+01  0.2949E+02
   4.120  0.1992E+01  0.2951E+02
   4.130  0.1752E+01  0.2953E+02
   4.140  0.1658E+01  0.2955E+02
   4.150  0.1684E+01  0.2956E+02
   4.160  0.1769E+01  0.2958E+02
   4.170  0.1888E+01  0.2960E+02
   4.180  0.2032E+01  0.2962E+02
   4.190  0.2122E+01  0.2964E+02
   4.200  0.2217E+01  0.2966E+02
   4.210  0.2313E+01  0.2968E+02
   4.220  0.2364E+01  0.2971E+02
   4.230  0.2423E+01  0.2973E+02
   4.240  0.2477E+01  0.2975E+02
   4.250  0.2877E+01  0.2978E+02
   4.260  0.2229E+01  0.2981E+02
   4.270  0.2092E+01  0.2983E+02
   4.280  0.2033E+01  0.2985E+02
   4.290  0.2001E+01  0.2987E+02
   4.300  0.2007E+01  0.2989E+02
   4.310  0.2047E+01  0.2991E+02
   4.320  0.2112E+01  0.2993E+02
   4.330  0.2081E+01  0.2995E+02
   4.340  0.2132E+01  0.2997E+02
   4.350  0.2211E+01  0.2999E+02
   4.360  0.2282E+01  0.3002E+02
   4.370  0.2350E+01  0.3004E+02
   4.380  0.2435E+01  0.3006E+02
   4.390  0.2511E+01  0.3009E+02
   4.400  0.2423E+01  0.3011E+02
   4.410  0.2443E+01  0.3014E+02
   4.420  0.2470E+01  0.3016E+02
   4.430  0.2501E+01  0.3019E+02
   4.440  0.2527E+01  0.3021E+02
   4.450  0.2555E+01  0.3024E+02
   4.460  0.2609E+01  0.3026E+02
   4.470  0.2677E+01  0.3029E+02
   4.480  0.2734E+01  0.3032E+02
   4.490  0.2776E+01  0.3034E+02
   4.500  0.2810E+01  0.3037E+02
   4.510  0.2853E+01  0.3040E+02
   4.520  0.2903E+01  0.3043E+02
   4.530  0.2986E+01  0.3046E+02
   4.540  0.3067E+01  0.3049E+02
   4.550  0.3070E+01  0.3052E+02
   4.560  0.3040E+01  0.3055E+02
   4.570  0.3108E+01  0.3058E+02
   4.580  0.3214E+01  0.3061E+02
   4.590  0.3393E+01  0.3065E+02
   4.600  0.3542E+01  0.3068E+02
   4.610  0.3732E+01  0.3072E+02
   4.620  0.3854E+01  0.3075E+02
   4.630  0.4016E+01  0.3079E+02
   4.640  0.4220E+01  0.3083E+02
   4.650  0.4546E+01  0.3088E+02
   4.660  0.4750E+01  0.3093E+02
   4.670  0.4835E+01  0.3097E+02
   4.680  0.4931E+01  0.3102E+02
   4.690  0.5010E+01  0.3107E+02
   4.700  0.5013E+01  0.3112E+02
   4.710  0.5090E+01  0.3117E+02
   4.720  0.5068E+01  0.3122E+02
   4.730  0.5053E+01  0.3127E+02
   4.740  0.5031E+01  0.3132E+02
   4.750  0.5086E+01  0.3137E+02
   4.760  0.5041E+01  0.3143E+02
   4.770  0.5052E+01  0.3148E+02
   4.780  0.5095E+01  0.3153E+02
   4.790  0.5328E+01  0.3158E+02
   4.800  0.5346E+01  0.3163E+02
   4.810  0.5412E+01  0.3169E+02
   4.820  0.5544E+01  0.3174E+02
   4.830  0.5715E+01  0.3180E+02
   4.840  0.5639E+01  0.3185E+02
   4.850  0.5136E+01  0.3191E+02
   4.860  0.4937E+01  0.3196E+02
   4.870  0.4887E+01  0.3201E+02
   4.880  0.5141E+01  0.3206E+02
   4.890  0.6190E+01  0.3211E+02
   4.900  0.7001E+01  0.3218E+02
   4.910  0.6030E+01  0.3225E+02
   4.920  0.5459E+01  0.3230E+02
   4.930  0.5113E+01  0.3236E+02
   4.940  0.4957E+01  0.3241E+02
   4.950  0.4936E+01  0.3246E+02
   4.960  0.5014E+01  0.3251E+02
   4.970  0.5084E+01  0.3256E+02
   4.980  0.5031E+01  0.3261E+02
   4.990  0.5113E+01  0.3266E+02
   5.000  0.5146E+01  0.3271E+02
   5.010  0.5077E+01  0.3276E+02
   5.020  0.4972E+01  0.3281E+02
   5.030  0.4881E+01  0.3286E+02
   5.040  0.4884E+01  0.3291E+02
   5.050  0.4993E+01  0.3296E+02
   5.060  0.5093E+01  0.3301E+02
   5.070  0.5086E+01  0.3306E+02
   5.080  0.5056E+01  0.3311E+02
   5.090  0.5141E+01  0.3316E+02
   5.100  0.5240E+01  0.3321E+02
   5.110  0.5304E+01  0.3326E+02
   5.120  0.5396E+01  0.3332E+02
   5.130  0.5503E+01  0.3337E+02
   5.140  0.5781E+01  0.3343E+02
   5.150  0.5718E+01  0.3349E+02
   5.160  0.5748E+01  0.3354E+02
   5.170  0.5844E+01  0.3360E+02
   5.180  0.6079E+01  0.3366E+02
   5.190  0.7679E+01  0.3373E+02
   5.200  0.6153E+01  0.3379E+02
   5.210  0.6484E+01  0.3385E+02
   5.220  0.6772E+01  0.3392E+02
   5.230  0.6862E+01  0.3399E+02
   5.240  0.7227E+01  0.3406E+02
   5.250  0.7312E+01  0.3413E+02
   5.260  0.7743E+01  0.3421E+02
   5.270  0.8183E+01  0.3429E+02
   5.280  0.8305E+01  0.3437E+02
   5.290  0.8048E+01  0.3445E+02
   5.300  0.7555E+01  0.3453E+02
   5.310  0.7499E+01  0.3461E+02
   5.320  0.7393E+01  0.3468E+02
   5.330  0.7328E+01  0.3475E+02
   5.340  0.7623E+01  0.3483E+02
   5.350  0.8287E+01  0.3491E+02
   5.360  0.9105E+01  0.3499E+02
   5.370  0.1080E+02  0.3509E+02
   5.380  0.1105E+02  0.3520E+02
   5.390  0.1115E+02  0.3531E+02
   5.400  0.9799E+01  0.3542E+02
   5.410  0.9440E+01  0.3551E+02
   5.420  0.9308E+01  0.3561E+02
   5.430  0.9167E+01  0.3570E+02
   5.440  0.9438E+01  0.3579E+02
   5.450  0.9853E+01  0.3589E+02
   5.460  0.1018E+02  0.3599E+02
   5.470  0.1046E+02  0.3609E+02
   5.480  0.1139E+02  0.3620E+02
   5.490  0.1199E+02  0.3632E+02
   5.500  0.1149E+02  0.3644E+02
   5.510  0.1102E+02  0.3655E+02
   5.520  0.1088E+02  0.3666E+02
   5.530  0.9942E+01  0.3676E+02
   5.540  0.9891E+01  0.3686E+02
   5.550  0.9901E+01  0.3696E+02
   5.560  0.1014E+02  0.3706E+02
   5.570  0.1036E+02  0.3716E+02
   5.580  0.1095E+02  0.3727E+02
   5.590  0.1104E+02  0.3738E+02
   5.600  0.1121E+02  0.3749E+02
   5.610  0.1111E+02  0.3760E+02
   5.620  0.1126E+02  0.3772E+02
   5.630  0.9306E+01  0.3782E+02
   5.640  0.9016E+01  0.3791E+02
   5.650  0.8588E+01  0.3800E+02
   5.660  0.8160E+01  0.3808E+02
   5.670  0.7886E+01  0.3816E+02
   5.680  0.8041E+01  0.3824E+02
   5.690  0.8796E+01  0.3832E+02
   5.700  0.9043E+01  0.3841E+02
   5.710  0.8760E+01  0.3850E+02
   5.720  0.8431E+01  0.3859E+02
   5.730  0.8069E+01  0.3867E+02
   5.740  0.7817E+01  0.3875E+02
   5.750  0.7531E+01  0.3882E+02
   5.760  0.7438E+01  0.3890E+02
   5.770  0.7468E+01  0.3897E+02
   5.780  0.7581E+01  0.3905E+02
   5.790  0.7724E+01  0.3913E+02
   5.800  0.8027E+01  0.3920E+02
   5.810  0.8522E+01  0.3929E+02
   5.820  0.7379E+01  0.3937E+02
   5.830  0.7159E+01  0.3944E+02
   5.840  0.7047E+01  0.3951E+02
   5.850  0.6377E+01  0.3958E+02
   5.860  0.5931E+01  0.3964E+02
   5.870  0.5806E+01  0.3970E+02
   5.880  0.5715E+01  0.3975E+02
   5.890  0.5668E+01  0.3981E+02
   5.900  0.5689E+01  0.3987E+02
   5.910  0.5648E+01  0.3992E+02
   5.920  0.5605E+01  0.3998E+02
   5.930  0.5599E+01  0.4004E+02
   5.940  0.5649E+01  0.4009E+02
   5.950  0.5806E+01  0.4015E+02
   5.960  0.6006E+01  0.4021E+02
   5.970  0.6175E+01  0.4027E+02
   5.980  0.6480E+01  0.4033E+02
   5.990  0.6930E+01  0.4040E+02
   6.000  0.7318E+01  0.4047E+02
   6.010  0.7120E+01  0.4054E+02
   6.020  0.6415E+01  0.4061E+02
   6.030  0.5502E+01  0.4067E+02
   6.040  0.5063E+01  0.4072E+02
   6.050  0.4889E+01  0.4077E+02
   6.060  0.5109E+01  0.4082E+02
   6.070  0.5520E+01  0.4088E+02
   6.080  0.6454E+01  0.4094E+02
   6.090  0.6997E+01  0.4100E+02
   6.100  0.7090E+01  0.4108E+02
   6.110  0.7407E+01  0.4115E+02
   6.120  0.7678E+01  0.4122E+02
   6.130  0.7913E+01  0.4130E+02
   6.140  0.8513E+01  0.4138E+02
   6.150  0.8681E+01  0.4147E+02
   6.160  0.8871E+01  0.4156E+02
   6.170  0.8989E+01  0.4165E+02
   6.180  0.9207E+01  0.4174E+02
   6.190  0.9521E+01  0.4183E+02
   6.200  0.9404E+01  0.4193E+02
   6.210  0.9269E+01  0.4202E+02
   6.220  0.9290E+01  0.4211E+02
   6.230  0.9325E+01  0.4220E+02
   6.240  0.9570E+01  0.4230E+02
   6.250  0.9836E+01  0.4240E+02
   6.260  0.1005E+02  0.4250E+02
   6.270  0.9274E+01  0.4259E+02
   6.280  0.8431E+01  0.4268E+02
   6.290  0.8237E+01  0.4276E+02
   6.300  0.8341E+01  0.4285E+02
   6.310  0.8107E+01  0.4293E+02
   6.320  0.7078E+01  0.4301E+02
   6.330  0.6500E+01  0.4307E+02
   6.340  0.5995E+01  0.4314E+02
   6.350  0.5098E+01  0.4319E+02
   6.360  0.4549E+01  0.4324E+02
   6.370  0.4278E+01  0.4328E+02
   6.380  0.4222E+01  0.4333E+02
   6.390  0.4120E+01  0.4337E+02
   6.400  0.4506E+01  0.4341E+02
   6.410  0.5292E+01  0.4346E+02
   6.420  0.5893E+01  0.4352E+02
   6.430  0.6351E+01  0.4358E+02
   6.440  0.6729E+01  0.4364E+02
   6.450  0.7486E+01  0.4371E+02
   6.460  0.8182E+01  0.4379E+02
   6.470  0.8437E+01  0.4388E+02
   6.480  0.8391E+01  0.4396E+02
   6.490  0.8228E+01  0.4404E+02
   6.500  0.7627E+01  0.4412E+02
   6.510  0.6681E+01  0.4419E+02
   6.520  0.6172E+01  0.4426E+02
   6.530  0.5806E+01  0.4432E+02
   6.540  0.5573E+01  0.4437E+02
   6.550  0.5418E+01  0.4443E+02
   6.560  0.5228E+01  0.4448E+02
   6.570  0.5110E+01  0.4453E+02
   6.580  0.4978E+01  0.4458E+02
   6.590  0.4445E+01  0.4463E+02
   6.600  0.4012E+01  0.4467E+02
   6.610  0.3747E+01  0.4471E+02
   6.620  0.3483E+01  0.4475E+02
   6.630  0.3293E+01  0.4478E+02
   6.640  0.3111E+01  0.4481E+02
   6.650  0.2963E+01  0.4484E+02
   6.660  0.2802E+01  0.4487E+02
   6.670  0.2682E+01  0.4490E+02
   6.680  0.2597E+01  0.4493E+02
   6.690  0.2525E+01  0.4495E+02
   6.700  0.2473E+01  0.4498E+02
   6.710  0.2402E+01  0.4500E+02
   6.720  0.2312E+01  0.4503E+02
   6.730  0.2249E+01  0.4505E+02
   6.740  0.2191E+01  0.4507E+02
   6.750  0.2161E+01  0.4509E+02
   6.760  0.2136E+01  0.4511E+02
   6.770  0.2072E+01  0.4514E+02
   6.780  0.2047E+01  0.4516E+02
   6.790  0.2031E+01  0.4518E+02
   6.800  0.2030E+01  0.4520E+02
   6.810  0.2049E+01  0.4522E+02
   6.820  0.2053E+01  0.4524E+02
   6.830  0.2053E+01  0.4526E+02
   6.840  0.2064E+01  0.4528E+02
   6.850  0.2083E+01  0.4530E+02
   6.860  0.2110E+01  0.4532E+02
   6.870  0.2142E+01  0.4534E+02
   6.880  0.2190E+01  0.4536E+02
   6.890  0.2280E+01  0.4539E+02
   6.900  0.2384E+01  0.4541E+02
   6.910  0.2494E+01  0.4543E+02
   6.920  0.2529E+01  0.4546E+02
   6.930  0.2569E+01  0.4548E+02
   6.940  0.2633E+01  0.4551E+02
   6.950  0.2691E+01  0.4554E+02
   6.960  0.2751E+01  0.4556E+02
   6.970  0.2817E+01  0.4559E+02
   6.980  0.2890E+01  0.4562E+02
   6.990  0.2967E+01  0.4565E+02
   7.000  0.3063E+01  0.4568E+02
   7.010  0.3170E+01  0.4571E+02
   7.020  0.3278E+01  0.4574E+02
   7.030  0.3406E+01  0.4578E+02
   7.040  0.3564E+01  0.4581E+02
   7.050  0.3715E+01  0.4585E+02
   7.060  0.3864E+01  0.4589E+02
   7.070  0.4048E+01  0.4592E+02
   7.080  0.4389E+01  0.4597E+02
   7.090  0.4568E+01  0.4601E+02
   7.100  0.4563E+01  0.4606E+02
   7.110  0.4576E+01  0.4610E+02
   7.120  0.4624E+01  0.4615E+02
   7.130  0.4737E+01  0.4620E+02
   7.140  0.4941E+01  0.4624E+02
   7.150  0.5131E+01  0.4629E+02
   7.160  0.5278E+01  0.4635E+02
   7.170  0.5439E+01  0.4640E+02
   7.180  0.5528E+01  0.4646E+02
   7.190  0.5538E+01  0.4651E+02
   7.200  0.5556E+01  0.4657E+02
   7.210  0.5599E+01  0.4662E+02
   7.220  0.5501E+01  0.4668E+02
   7.230  0.5476E+01  0.4673E+02
   7.240  0.5494E+01  0.4679E+02
   7.250  0.5527E+01  0.4684E+02
   7.260  0.5575E+01  0.4690E+02
   7.270  0.5633E+01  0.4695E+02
   7.280  0.5709E+01  0.4701E+02
   7.290  0.5770E+01  0.4707E+02
   7.300  0.5841E+01  0.4713E+02
   7.310  0.5933E+01  0.4718E+02
   7.320  0.6053E+01  0.4724E+02
   7.330  0.6178E+01  0.4731E+02
   7.340  0.6333E+01  0.4737E+02
   7.350  0.6489E+01  0.4743E+02
   7.360  0.6623E+01  0.4750E+02
   7.370  0.6817E+01  0.4756E+02
   7.380  0.7060E+01  0.4763E+02
   7.390  0.7432E+01  0.4771E+02
   7.400  0.7751E+01  0.4778E+02
   7.410  0.7776E+01  0.4786E+02
   7.420  0.7553E+01  0.4794E+02
   7.430  0.7542E+01  0.4801E+02
   7.440  0.7519E+01  0.4809E+02
   7.450  0.7384E+01  0.4816E+02
   7.460  0.7288E+01  0.4824E+02
   7.470  0.7246E+01  0.4831E+02
   7.480  0.7321E+01  0.4838E+02
   7.490  0.7180E+01  0.4845E+02
   7.500  0.7048E+01  0.4852E+02
   7.510  0.6963E+01  0.4859E+02
   7.520  0.6943E+01  0.4866E+02
   7.530  0.7111E+01  0.4873E+02
   7.540  0.7334E+01  0.4881E+02
   7.550  0.7537E+01  0.4888E+02
   7.560  0.6799E+01  0.4895E+02
   7.570  0.6364E+01  0.4902E+02
   7.580  0.6109E+01  0.4908E+02
   7.590  0.5804E+01  0.4914E+02
   7.600  0.5579E+01  0.4920E+02
   7.610  0.5429E+01  0.4925E+02
   7.620  0.5224E+01  0.4931E+02
   7.630  0.5124E+01  0.4936E+02
   7.640  0.4991E+01  0.4941E+02
   7.650  0.4846E+01  0.4946E+02
   7.660  0.4707E+01  0.4951E+02
   7.670  0.4613E+01  0.4955E+02
   7.680  0.4693E+01  0.4960E+02
   7.690  0.4698E+01  0.4965E+02
   7.700  0.4773E+01  0.4969E+02
   7.710  0.4654E+01  0.4974E+02
   7.720  0.4627E+01  0.4979E+02
   7.730  0.4660E+01  0.4983E+02
   7.740  0.4623E+01  0.4988E+02
   7.750  0.4590E+01  0.4993E+02
   7.760  0.4453E+01  0.4997E+02
   7.770  0.4405E+01  0.5002E+02
   7.780  0.4452E+01  0.5006E+02
   7.790  0.4513E+01  0.5011E+02
   7.800  0.4770E+01  0.5015E+02
   7.810  0.4754E+01  0.5020E+02
   7.820  0.4577E+01  0.5025E+02
   7.830  0.4266E+01  0.5029E+02
   7.840  0.4387E+01  0.5033E+02
   7.850  0.4783E+01  0.5038E+02
   7.860  0.4426E+01  0.5043E+02
   7.870  0.4317E+01  0.5047E+02
   7.880  0.4373E+01  0.5051E+02
   7.890  0.4760E+01  0.5056E+02
   7.900  0.5244E+01  0.5061E+02
   7.910  0.6256E+01  0.5066E+02
   7.920  0.5501E+01  0.5073E+02
   7.930  0.3834E+01  0.5077E+02
   7.940  0.3309E+01  0.5081E+02
   7.950  0.3317E+01  0.5084E+02
   7.960  0.3286E+01  0.5087E+02
   7.970  0.3164E+01  0.5091E+02
   7.980  0.3200E+01  0.5094E+02
   7.990  0.3194E+01  0.5097E+02
   8.000  0.3333E+01  0.5100E+02
   8.010  0.3492E+01  0.5104E+02
   8.020  0.3820E+01  0.5107E+02
   8.030  0.5910E+01  0.5112E+02
   8.040  0.6595E+01  0.5118E+02
   8.050  0.5622E+01  0.5124E+02
   8.060  0.5250E+01  0.5130E+02
   8.070  0.5167E+01  0.5135E+02
   8.080  0.5334E+01  0.5140E+02
   8.090  0.5215E+01  0.5146E+02
   8.100  0.5035E+01  0.5151E+02
   8.110  0.4808E+01  0.5156E+02
   8.120  0.4614E+01  0.5160E+02
   8.130  0.4494E+01  0.5165E+02
   8.140  0.4512E+01  0.5169E+02
   8.150  0.4637E+01  0.5174E+02
   8.160  0.5266E+01  0.5179E+02
   8.170  0.5020E+01  0.5184E+02
   8.180  0.5291E+01  0.5189E+02
   8.190  0.5441E+01  0.5194E+02
   8.200  0.5694E+01  0.5200E+02
   8.210  0.5991E+01  0.5206E+02
   8.220  0.5973E+01  0.5212E+02
   8.230  0.6211E+01  0.5218E+02
   8.240  0.6506E+01  0.5224E+02
   8.250  0.6955E+01  0.5231E+02
   8.260  0.7185E+01  0.5238E+02
   8.270  0.7125E+01  0.5245E+02
   8.280  0.7050E+01  0.5252E+02
   8.290  0.7357E+01  0.5259E+02
   8.300  0.7677E+01  0.5267E+02
   8.310  0.7944E+01  0.5275E+02
   8.320  0.8434E+01  0.5283E+02
   8.330  0.8890E+01  0.5291E+02
   8.340  0.9430E+01  0.5301E+02
   8.350  0.9753E+01  0.5310E+02
   8.360  0.1053E+02  0.5320E+02
   8.370  0.1045E+02  0.5331E+02
   8.380  0.9744E+01  0.5341E+02
   8.390  0.9525E+01  0.5351E+02
   8.400  0.9898E+01  0.5360E+02
   8.410  0.1024E+02  0.5370E+02
   8.420  0.1080E+02  0.5381E+02
   8.430  0.9846E+01  0.5391E+02
   8.440  0.9434E+01  0.5401E+02
   8.450  0.7152E+01  0.5409E+02
   8.460  0.6647E+01  0.5416E+02
   8.470  0.6387E+01  0.5422E+02
   8.480  0.6190E+01  0.5429E+02
   8.490  0.5971E+01  0.5435E+02
   8.500  0.5650E+01  0.5441E+02
   8.510  0.5395E+01  0.5446E+02
   8.520  0.5218E+01  0.5451E+02
   8.530  0.5086E+01  0.5457E+02
   8.540  0.4995E+01  0.5462E+02
   8.550  0.4904E+01  0.5467E+02
   8.560  0.4816E+01  0.5471E+02
   8.570  0.4729E+01  0.5476E+02
   8.580  0.4660E+01  0.5481E+02
   8.590  0.4593E+01  0.5485E+02
   8.600  0.4525E+01  0.5490E+02
   8.610  0.4478E+01  0.5495E+02
   8.620  0.4447E+01  0.5499E+02
   8.630  0.4408E+01  0.5503E+02
   8.640  0.4347E+01  0.5508E+02
   8.650  0.4322E+01  0.5512E+02
   8.660  0.4261E+01  0.5516E+02
   8.670  0.4046E+01  0.5521E+02
   8.680  0.3897E+01  0.5525E+02
   8.690  0.3793E+01  0.5528E+02
   8.700  0.3702E+01  0.5532E+02
   8.710  0.3633E+01  0.5536E+02
   8.720  0.3569E+01  0.5539E+02
   8.730  0.3513E+01  0.5543E+02
   8.740  0.3466E+01  0.5546E+02
   8.750  0.3415E+01  0.5550E+02
   8.760  0.3368E+01  0.5553E+02
   8.770  0.3334E+01  0.5557E+02
   8.780  0.3291E+01  0.5560E+02
   8.790  0.3282E+01  0.5563E+02
   8.800  0.3301E+01  0.5567E+02
   8.810  0.3335E+01  0.5570E+02
   8.820  0.3386E+01  0.5573E+02
   8.830  0.3449E+01  0.5577E+02
   8.840  0.3555E+01  0.5580E+02
   8.850  0.3728E+01  0.5584E+02
   8.860  0.4013E+01  0.5588E+02
   8.870  0.4279E+01  0.5592E+02
   8.880  0.4397E+01  0.5596E+02
   8.890  0.4386E+01  0.5601E+02
   8.900  0.4290E+01  0.5605E+02
   8.910  0.4232E+01  0.5609E+02
   8.920  0.4130E+01  0.5613E+02
   8.930  0.3921E+01  0.5617E+02
   8.940  0.3679E+01  0.5621E+02
   8.950  0.3604E+01  0.5625E+02
   8.960  0.3545E+01  0.5628E+02
   8.970  0.3542E+01  0.5632E+02
   8.980  0.3665E+01  0.5635E+02
   8.990  0.3784E+01  0.5639E+02
   9.000  0.3880E+01  0.5643E+02
   9.010  0.4174E+01  0.5647E+02
   9.020  0.4330E+01  0.5651E+02
   9.030  0.4435E+01  0.5656E+02
   9.040  0.4449E+01  0.5660E+02
   9.050  0.4550E+01  0.5665E+02
   9.060  0.4644E+01  0.5669E+02
   9.070  0.4591E+01  0.5674E+02
   9.080  0.4477E+01  0.5678E+02
   9.090  0.4437E+01  0.5683E+02
   9.100  0.4404E+01  0.5687E+02
   9.110  0.4343E+01  0.5692E+02
   9.120  0.4237E+01  0.5696E+02
   9.130  0.4153E+01  0.5700E+02
   9.140  0.4088E+01  0.5704E+02
   9.150  0.4014E+01  0.5708E+02
   9.160  0.3930E+01  0.5712E+02
   9.170  0.3862E+01  0.5716E+02
   9.180  0.3807E+01  0.5720E+02
   9.190  0.3806E+01  0.5724E+02
   9.200  0.4086E+01  0.5728E+02
   9.210  0.3910E+01  0.5732E+02
   9.220  0.3387E+01  0.5735E+02
   9.230  0.3290E+01  0.5739E+02
   9.240  0.3309E+01  0.5742E+02
   9.250  0.3460E+01  0.5745E+02
   9.260  0.3597E+01  0.5749E+02
   9.270  0.3716E+01  0.5753E+02
   9.280  0.3881E+01  0.5756E+02
   9.290  0.4158E+01  0.5760E+02
   9.300  0.4316E+01  0.5765E+02
   9.310  0.3896E+01  0.5769E+02
   9.320  0.3445E+01  0.5773E+02
   9.330  0.2584E+01  0.5776E+02
   9.340  0.2539E+01  0.5778E+02
   9.350  0.2874E+01  0.5781E+02
   9.360  0.3314E+01  0.5784E+02
   9.370  0.3385E+01  0.5787E+02
   9.380  0.3475E+01  0.5791E+02
   9.390  0.3650E+01  0.5794E+02
   9.400  0.3937E+01  0.5798E+02
   9.410  0.3949E+01  0.5802E+02
   9.420  0.4105E+01  0.5806E+02
   9.430  0.4174E+01  0.5810E+02
   9.440  0.4254E+01  0.5814E+02
   9.450  0.4236E+01  0.5818E+02
   9.460  0.4090E+01  0.5823E+02
   9.470  0.4009E+01  0.5827E+02
   9.480  0.4004E+01  0.5831E+02
   9.490  0.4004E+01  0.5835E+02
   9.500  0.3890E+01  0.5839E+02
   9.510  0.3808E+01  0.5842E+02
   9.520  0.3741E+01  0.5846E+02
   9.530  0.3707E+01  0.5850E+02
   9.540  0.3677E+01  0.5854E+02
   9.550  0.3681E+01  0.5857E+02
   9.560  0.3660E+01  0.5861E+02
   9.570  0.3588E+01  0.5865E+02
   9.580  0.3557E+01  0.5868E+02
   9.590  0.3532E+01  0.5872E+02
   9.600  0.3513E+01  0.5875E+02
   9.610  0.3520E+01  0.5879E+02
   9.620  0.3504E+01  0.5882E+02
   9.630  0.3410E+01  0.5886E+02
   9.640  0.3323E+01  0.5889E+02
   9.650  0.3280E+01  0.5892E+02
   9.660  0.3251E+01  0.5896E+02
   9.670  0.3265E+01  0.5899E+02
   9.680  0.3318E+01  0.5902E+02
   9.690  0.3376E+01  0.5906E+02
   9.700  0.3440E+01  0.5909E+02
   9.710  0.3501E+01  0.5912E+02
   9.720  0.3591E+01  0.5916E+02
   9.730  0.3987E+01  0.5920E+02
   9.740  0.4299E+01  0.5924E+02
   9.750  0.5721E+01  0.5929E+02
   9.760  0.5713E+01  0.5935E+02
   9.770  0.5167E+01  0.5940E+02
   9.780  0.5093E+01  0.5945E+02
   9.790  0.5298E+01  0.5951E+02
   9.800  0.6506E+01  0.5957E+02
   9.810  0.4158E+01  0.5961E+02
   9.820  0.3548E+01  0.5965E+02
   9.830  0.3335E+01  0.5968E+02
   9.840  0.3152E+01  0.5972E+02
   9.850  0.3017E+01  0.5975E+02
   9.860  0.2857E+01  0.5978E+02
   9.870  0.2695E+01  0.5980E+02
   9.880  0.2560E+01  0.5983E+02
   9.890  0.2467E+01  0.5986E+02
   9.900  0.2379E+01  0.5988E+02
   9.910  0.2270E+01  0.5990E+02
   9.920  0.2180E+01  0.5993E+02
   9.930  0.2110E+01  0.5995E+02
   9.940  0.2055E+01  0.5997E+02
   9.950  0.2020E+01  0.5999E+02
   9.960  0.1988E+01  0.6001E+02
   9.970  0.2007E+01  0.6003E+02
   9.980  0.2060E+01  0.6005E+02
   9.990  0.2109E+01  0.6007E+02
  10.000  0.2162E+01  0.6009E+02
  10.010  0.2275E+01  0.6011E+02
  10.020  0.2400E+01  0.6014E+02
  10.030  0.2585E+01  0.6016E+02
  10.040  0.2834E+01  0.6019E+02
  10.050  0.2785E+01  0.6022E+02
  10.060  0.2856E+01  0.6024E+02
  10.070  0.3022E+01  0.6027E+02
  10.080  0.3197E+01  0.6030E+02
  10.090  0.3336E+01  0.6034E+02
  10.100  0.3335E+01  0.6037E+02
  10.110  0.3372E+01  0.6040E+02
  10.120  0.3432E+01  0.6044E+02
  10.130  0.3486E+01  0.6047E+02
  10.140  0.3545E+01  0.6051E+02
  10.150  0.3689E+01  0.6054E+02
  10.160  0.3781E+01  0.6058E+02
  10.170  0.3844E+01  0.6062E+02
  10.180  0.3915E+01  0.6066E+02
  10.190  0.4010E+01  0.6070E+02
  10.200  0.4117E+01  0.6074E+02
  10.210  0.4243E+01  0.6078E+02
  10.220  0.4387E+01  0.6082E+02
  10.230  0.4595E+01  0.6087E+02
  10.240  0.4904E+01  0.6092E+02
  10.250  0.5311E+01  0.6097E+02
  10.260  0.5967E+01  0.6102E+02
  10.270  0.5124E+01  0.6108E+02
  10.280  0.4937E+01  0.6113E+02
  10.290  0.4844E+01  0.6118E+02
  10.300  0.4869E+01  0.6123E+02
  10.310  0.4589E+01  0.6128E+02
  10.320  0.4372E+01  0.6132E+02
  10.330  0.4322E+01  0.6136E+02
  10.340  0.4287E+01  0.6141E+02
  10.350  0.4263E+01  0.6145E+02
  10.360  0.4254E+01  0.6149E+02
  10.370  0.4212E+01  0.6153E+02
  10.380  0.4227E+01  0.6158E+02
  10.390  0.4159E+01  0.6162E+02
  10.400  0.4083E+01  0.6166E+02
  10.410  0.3752E+01  0.6170E+02
  10.420  0.3022E+01  0.6173E+02
  10.430  0.2480E+01  0.6176E+02
  10.440  0.2361E+01  0.6178E+02
  10.450  0.2289E+01  0.6181E+02
  10.460  0.2246E+01  0.6183E+02
  10.470  0.2207E+01  0.6185E+02
  10.480  0.2180E+01  0.6187E+02
  10.490  0.2097E+01  0.6190E+02
  10.500  0.2051E+01  0.6192E+02
  10.510  0.2017E+01  0.6194E+02
  10.520  0.2017E+01  0.6196E+02
  10.530  0.2018E+01  0.6198E+02
  10.540  0.2021E+01  0.6200E+02
  10.550  0.2059E+01  0.6202E+02
  10.560  0.2169E+01  0.6204E+02
  10.570  0.2282E+01  0.6206E+02
  10.580  0.2339E+01  0.6208E+02
  10.590  0.2443E+01  0.6211E+02
  10.600  0.2546E+01  0.6213E+02
  10.610  0.2610E+01  0.6216E+02
  10.620  0.2680E+01  0.6219E+02
  10.630  0.2720E+01  0.6221E+02
  10.640  0.2774E+01  0.6224E+02
  10.650  0.2954E+01  0.6227E+02
  10.660  0.3134E+01  0.6230E+02
  10.670  0.3246E+01  0.6233E+02
  10.680  0.3359E+01  0.6236E+02
  10.690  0.3475E+01  0.6240E+02
  10.700  0.3676E+01  0.6243E+02
  10.710  0.3933E+01  0.6247E+02
  10.720  0.3974E+01  0.6251E+02
  10.730  0.3971E+01  0.6255E+02
  10.740  0.4042E+01  0.6259E+02
  10.750  0.4168E+01  0.6263E+02
  10.760  0.4343E+01  0.6267E+02
  10.770  0.5111E+01  0.6272E+02
  10.780  0.5149E+01  0.6277E+02
  10.790  0.5151E+01  0.6282E+02
  10.800  0.5182E+01  0.6287E+02
  10.810  0.5336E+01  0.6293E+02
  10.820  0.5535E+01  0.6298E+02
  10.830  0.5810E+01  0.6304E+02
  10.840  0.6112E+01  0.6310E+02
  10.850  0.6926E+01  0.6316E+02
  10.860  0.6992E+01  0.6323E+02
  10.870  0.7728E+01  0.6330E+02
  10.880  0.8476E+01  0.6339E+02
  10.890  0.9384E+01  0.6348E+02
  10.900  0.9320E+01  0.6357E+02
  10.910  0.9186E+01  0.6366E+02
  10.920  0.9334E+01  0.6375E+02
  10.930  0.9391E+01  0.6385E+02
  10.940  0.9373E+01  0.6394E+02
  10.950  0.9436E+01  0.6404E+02
  10.960  0.9721E+01  0.6413E+02
  10.970  0.9854E+01  0.6423E+02
  10.980  0.1008E+02  0.6433E+02
  10.990  0.1008E+02  0.6443E+02
  11.000  0.9924E+01  0.6453E+02
  11.010  0.9539E+01  0.6463E+02
  11.020  0.9438E+01  0.6472E+02
  11.030  0.9512E+01  0.6482E+02
  11.040  0.9401E+01  0.6491E+02
  11.050  0.9245E+01  0.6501E+02
  11.060  0.9299E+01  0.6510E+02
  11.070  0.9334E+01  0.6519E+02
  11.080  0.9443E+01  0.6528E+02
  11.090  0.9719E+01  0.6538E+02
  11.100  0.1005E+02  0.6548E+02
  11.110  0.1047E+02  0.6558E+02
  11.120  0.1010E+02  0.6568E+02
  11.130  0.9654E+01  0.6578E+02
  11.140  0.9523E+01  0.6588E+02
  11.150  0.9623E+01  0.6597E+02
  11.160  0.9786E+01  0.6607E+02
  11.170  0.1003E+02  0.6617E+02
  11.180  0.1055E+02  0.6627E+02
  11.190  0.1239E+02  0.6639E+02
  11.200  0.1149E+02  0.6650E+02
  11.210  0.1042E+02  0.6661E+02
  11.220  0.9743E+01  0.6671E+02
  11.230  0.9856E+01  0.6681E+02
  11.240  0.9564E+01  0.6691E+02
  11.250  0.9180E+01  0.6700E+02
  11.260  0.9060E+01  0.6709E+02
  11.270  0.8996E+01  0.6718E+02
  11.280  0.8839E+01  0.6727E+02
  11.290  0.8837E+01  0.6736E+02
  11.300  0.8789E+01  0.6745E+02
  11.310  0.8742E+01  0.6754E+02
  11.320  0.8672E+01  0.6763E+02
  11.330  0.8400E+01  0.6771E+02
  11.340  0.8348E+01  0.6779E+02
  11.350  0.8721E+01  0.6788E+02
  11.360  0.8656E+01  0.6797E+02
  11.370  0.8534E+01  0.6805E+02
  11.380  0.8463E+01  0.6814E+02
  11.390  0.8372E+01  0.6822E+02
  11.400  0.8287E+01  0.6831E+02
  11.410  0.8192E+01  0.6839E+02
  11.420  0.8036E+01  0.6847E+02
  11.430  0.7930E+01  0.6855E+02
  11.440  0.8062E+01  0.6863E+02
  11.450  0.7821E+01  0.6871E+02
  11.460  0.7895E+01  0.6879E+02
  11.470  0.7922E+01  0.6887E+02
  11.480  0.7839E+01  0.6894E+02
  11.490  0.7739E+01  0.6902E+02
  11.500  0.7631E+01  0.6910E+02
  11.510  0.7362E+01  0.6917E+02
  11.520  0.7241E+01  0.6925E+02
  11.530  0.6978E+01  0.6932E+02
  11.540  0.6901E+01  0.6939E+02
  11.550  0.7099E+01  0.6946E+02
  11.560  0.7306E+01  0.6953E+02
  11.570  0.7539E+01  0.6960E+02
  11.580  0.7812E+01  0.6968E+02
  11.590  0.8274E+01  0.6976E+02
  11.600  0.8981E+01  0.6985E+02
  11.610  0.9430E+01  0.6994E+02
  11.620  0.9427E+01  0.7003E+02
  11.630  0.9420E+01  0.7013E+02
  11.640  0.9699E+01  0.7022E+02
  11.650  0.9213E+01  0.7032E+02
  11.660  0.8597E+01  0.7041E+02
  11.670  0.8174E+01  0.7049E+02
  11.680  0.8065E+01  0.7057E+02
  11.690  0.8013E+01  0.7065E+02
  11.700  0.8428E+01  0.7073E+02
  11.710  0.9199E+01  0.7082E+02
  11.720  0.9404E+01  0.7092E+02
  11.730  0.9736E+01  0.7101E+02
  11.740  0.9430E+01  0.7111E+02
  11.750  0.9385E+01  0.7120E+02
  11.760  0.9215E+01  0.7130E+02
  11.770  0.9033E+01  0.7139E+02
  11.780  0.8737E+01  0.7148E+02
  11.790  0.8378E+01  0.7156E+02
  11.800  0.8188E+01  0.7164E+02
  11.810  0.8096E+01  0.7173E+02
  11.820  0.7913E+01  0.7181E+02
  11.830  0.7641E+01  0.7188E+02
  11.840  0.7486E+01  0.7196E+02
  11.850  0.7400E+01  0.7203E+02
  11.860  0.7333E+01  0.7211E+02
  11.870  0.7337E+01  0.7218E+02
  11.880  0.7417E+01  0.7225E+02
  11.890  0.7416E+01  0.7233E+02
  11.900  0.7447E+01  0.7240E+02
  11.910  0.7608E+01  0.7248E+02
  11.920  0.7987E+01  0.7256E+02
  11.930  0.8389E+01  0.7264E+02
  11.940  0.8728E+01  0.7272E+02
  11.950  0.9125E+01  0.7281E+02
  11.960  0.9407E+01  0.7290E+02
  11.970  0.9529E+01  0.7300E+02
  11.980  0.9258E+01  0.7309E+02
  11.990  0.8890E+01  0.7318E+02
  12.000  0.8833E+01  0.7327E+02
  12.010  0.9103E+01  0.7336E+02
  12.020  0.9140E+01  0.7346E+02
  12.030  0.9159E+01  0.7355E+02
  12.040  0.9303E+01  0.7364E+02
  12.050  0.9438E+01  0.7373E+02
  12.060  0.9706E+01  0.7383E+02
  12.070  0.9623E+01  0.7393E+02
  12.080  0.9482E+01  0.7402E+02
  12.090  0.9528E+01  0.7412E+02
  12.100  0.9533E+01  0.7421E+02
  12.110  0.9363E+01  0.7431E+02
  12.120  0.7407E+01  0.7439E+02
  12.130  0.7025E+01  0.7446E+02
  12.140  0.6526E+01  0.7453E+02
  12.150  0.6562E+01  0.7459E+02
  12.160  0.6494E+01  0.7466E+02
  12.170  0.6514E+01  0.7473E+02
  12.180  0.6695E+01  0.7479E+02
  12.190  0.7203E+01  0.7486E+02
  12.200  0.7876E+01  0.7494E+02
  12.210  0.7886E+01  0.7502E+02
  12.220  0.7855E+01  0.7509E+02
  12.230  0.8163E+01  0.7517E+02
  12.240  0.8261E+01  0.7526E+02
  12.250  0.8255E+01  0.7534E+02
  12.260  0.8193E+01  0.7542E+02
  12.270  0.8201E+01  0.7550E+02
  12.280  0.8160E+01  0.7558E+02
  12.290  0.7953E+01  0.7567E+02
  12.300  0.7822E+01  0.7574E+02
  12.310  0.7626E+01  0.7582E+02
  12.320  0.7594E+01  0.7590E+02
  12.330  0.7707E+01  0.7597E+02
  12.340  0.7209E+01  0.7605E+02
  12.350  0.6725E+01  0.7612E+02
  12.360  0.6459E+01  0.7618E+02
  12.370  0.6373E+01  0.7625E+02
  12.380  0.6395E+01  0.7631E+02
  12.390  0.6500E+01  0.7638E+02
  12.400  0.6588E+01  0.7644E+02
  12.410  0.6817E+01  0.7651E+02
  12.420  0.7101E+01  0.7658E+02
  12.430  0.7432E+01  0.7665E+02
  12.440  0.7494E+01  0.7673E+02
  12.450  0.7361E+01  0.7680E+02
  12.460  0.7451E+01  0.7687E+02
  12.470  0.7482E+01  0.7695E+02
  12.480  0.7516E+01  0.7702E+02
  12.490  0.7532E+01  0.7710E+02
  12.500  0.7504E+01  0.7717E+02
  12.510  0.7320E+01  0.7725E+02
  12.520  0.7115E+01  0.7732E+02
  12.530  0.6626E+01  0.7739E+02
  12.540  0.6406E+01  0.7745E+02
  12.550  0.6286E+01  0.7752E+02
  12.560  0.6045E+01  0.7758E+02
  12.570  0.5622E+01  0.7764E+02
  12.580  0.5520E+01  0.7769E+02
  12.590  0.5652E+01  0.7775E+02
  12.600  0.6007E+01  0.7781E+02
  12.610  0.6050E+01  0.7787E+02
  12.620  0.6056E+01  0.7793E+02
  12.630  0.6075E+01  0.7799E+02
  12.640  0.5783E+01  0.7805E+02
  12.650  0.5739E+01  0.7811E+02
  12.660  0.5466E+01  0.7816E+02
  12.670  0.5270E+01  0.7821E+02
  12.680  0.5127E+01  0.7827E+02
  12.690  0.4997E+01  0.7832E+02
  12.700  0.4957E+01  0.7837E+02
  12.710  0.4952E+01  0.7842E+02
  12.720  0.4996E+01  0.7847E+02
  12.730  0.4767E+01  0.7852E+02
  12.740  0.4568E+01  0.7856E+02
  12.750  0.4483E+01  0.7861E+02
  12.760  0.4375E+01  0.7865E+02
  12.770  0.4281E+01  0.7869E+02
  12.780  0.4185E+01  0.7874E+02
  12.790  0.4114E+01  0.7878E+02
  12.800  0.4060E+01  0.7882E+02
  12.810  0.3963E+01  0.7886E+02
  12.820  0.3910E+01  0.7890E+02
  12.830  0.4013E+01  0.7894E+02
  12.840  0.3973E+01  0.7898E+02
  12.850  0.4011E+01  0.7902E+02
  12.860  0.4182E+01  0.7906E+02
  12.870  0.4091E+01  0.7910E+02
  12.880  0.3806E+01  0.7914E+02
  12.890  0.3706E+01  0.7918E+02
  12.900  0.3733E+01  0.7921E+02
  12.910  0.4032E+01  0.7925E+02
  12.920  0.4003E+01  0.7929E+02
  12.930  0.3958E+01  0.7933E+02
  12.940  0.3396E+01  0.7937E+02
  12.950  0.3055E+01  0.7940E+02
  12.960  0.2814E+01  0.7943E+02
  12.970  0.2642E+01  0.7946E+02
  12.980  0.2508E+01  0.7948E+02
  12.990  0.2380E+01  0.7951E+02
  13.000  0.2252E+01  0.7953E+02
  13.010  0.2165E+01  0.7955E+02
  13.020  0.1963E+01  0.7957E+02
  13.030  0.1865E+01  0.7959E+02
  13.040  0.1810E+01  0.7961E+02
  13.050  0.1744E+01  0.7963E+02
  13.060  0.1716E+01  0.7965E+02
  13.070  0.1726E+01  0.7966E+02
  13.080  0.1753E+01  0.7968E+02
  13.090  0.1786E+01  0.7970E+02
  13.100  0.1812E+01  0.7972E+02
  13.110  0.1829E+01  0.7973E+02
  13.120  0.1820E+01  0.7975E+02
  13.130  0.1611E+01  0.7977E+02
  13.140  0.1448E+01  0.7979E+02
  13.150  0.1253E+01  0.7980E+02
  13.160  0.1143E+01  0.7981E+02
  13.170  0.1077E+01  0.7982E+02
  13.180  0.1029E+01  0.7983E+02
  13.190  0.9768E+00  0.7984E+02
  13.200  0.9284E+00  0.7985E+02
  13.210  0.8857E+00  0.7986E+02
  13.220  0.8504E+00  0.7987E+02
  13.230  0.8151E+00  0.7988E+02
  13.240  0.7754E+00  0.7989E+02
  13.250  0.7355E+00  0.7989E+02
  13.260  0.6979E+00  0.7990E+02
  13.270  0.6659E+00  0.7991E+02
  13.280  0.6351E+00  0.7991E+02
  13.290  0.6047E+00  0.7992E+02
  13.300  0.5752E+00  0.7993E+02
  13.310  0.5474E+00  0.7993E+02
  13.320  0.5204E+00  0.7994E+02
  13.330  0.4928E+00  0.7994E+02
  13.340  0.4641E+00  0.7995E+02
  13.350  0.4394E+00  0.7995E+02
  13.360  0.4172E+00  0.7996E+02
  13.370  0.3965E+00  0.7996E+02
  13.380  0.3776E+00  0.7996E+02
  13.390  0.3608E+00  0.7997E+02
  13.400  0.3454E+00  0.7997E+02
  13.410  0.3307E+00  0.7997E+02
  13.420  0.3156E+00  0.7998E+02
  13.430  0.2995E+00  0.7998E+02
  13.440  0.2863E+00  0.7998E+02
  13.450  0.2851E+00  0.7999E+02
  13.460  0.2734E+00  0.7999E+02
  13.470  0.2239E+00  0.7999E+02
  13.480  0.1880E+00  0.7999E+02
  13.490  0.1550E+00  0.8000E+02
  13.500  0.1248E+00  0.8000E+02
  13.510  0.9751E-01  0.8000E+02
  13.520  0.7303E-01  0.8000E+02
  13.530  0.5145E-01  0.8000E+02
  13.540  0.3720E-01  0.8000E+02
  13.550  0.1066E-01  0.8000E+02
